PE UV       SUBTECH     SPECTRUM    ASCII       PEDS        4.00        
   -1
CICIMAUCR0003-1.Sample.ASC
24/05/03
10:03:20.00
24/05/03
10:03:20.00
Vinicio Soto Monge
C. kalinini
250,000000
1
Lambda 1050
1050L1511233
PerkinElmer UV WinLab 6.3.2.0749 / 2.02.05 Lambda 900 UV/VIS/NIR, Aug  7 2015 09:38:08

0
0
3350/servo 860,8/2
0
0
UV/VIS
1
1
1
DoubleDePol,CommonBeamDepol,RBeamAtt,SBeamAtt,60mm sphere, WB InGaAs Detector
0
0
0
0
Program
Program
3350/servo 860,8/2
3350/0,2 860,8/0,2
3350/0,2 860,8/0,2
0
15.00
 
 
 
0
 
860,8
319,2
860,8
Front
100
on
S:100 R:100
0
0
0
0
 
0
 
 
 
0
 
 
0
0
0
0
0
 
 
 
 
0
0


0
0
#HDR
-1
-1
#GR
nm
%R
1.0
0.0
2500,000000
-1,000000
2251
8
96,293800
5,389400
#DATA
2500.000000	8.183300
2499.000000	8.079700
2498.000000	7.930000
2497.000000	8.037900
2496.000000	8.012600
2495.000000	8.018600
2494.000000	7.945300
2493.000000	7.981600
2492.000000	7.902400
2491.000000	7.919200
2490.000000	7.871400
2489.000000	7.810900
2488.000000	7.886800
2487.000000	7.815400
2486.000000	7.827200
2485.000000	7.782300
2484.000000	7.744500
2483.000000	7.814400
2482.000000	7.720400
2481.000000	7.777700
2480.000000	7.771500
2479.000000	7.785800
2478.000000	7.795000
2477.000000	7.781800
2476.000000	7.760500
2475.000000	7.806000
2474.000000	7.719500
2473.000000	7.709000
2472.000000	7.752100
2471.000000	7.771400
2470.000000	7.790400
2469.000000	7.766300
2468.000000	7.733400
2467.000000	7.774900
2466.000000	7.840300
2465.000000	7.801700
2464.000000	7.835100
2463.000000	7.887200
2462.000000	7.885500
2461.000000	7.911300
2460.000000	7.942800
2459.000000	8.027100
2458.000000	8.046900
2457.000000	8.085100
2456.000000	8.170600
2455.000000	8.197200
2454.000000	8.263000
2453.000000	8.350500
2452.000000	8.408500
2451.000000	8.486100
2450.000000	8.533300
2449.000000	8.591500
2448.000000	8.659300
2447.000000	8.731600
2446.000000	8.831600
2445.000000	8.918600
2444.000000	8.978500
2443.000000	9.021300
2442.000000	9.088200
2441.000000	9.162900
2440.000000	9.212100
2439.000000	9.291700
2438.000000	9.379500
2437.000000	9.416400
2436.000000	9.478600
2435.000000	9.545400
2434.000000	9.585900
2433.000000	9.652400
2432.000000	9.706100
2431.000000	9.762700
2430.000000	9.794900
2429.000000	9.836000
2428.000000	9.863000
2427.000000	9.913600
2426.000000	9.958700
2425.000000	9.987900
2424.000000	10.026700
2423.000000	10.047900
2422.000000	10.076900
2421.000000	10.113000
2420.000000	10.140600
2419.000000	10.166400
2418.000000	10.188000
2417.000000	10.219500
2416.000000	10.251500
2415.000000	10.268600
2414.000000	10.296800
2413.000000	10.308500
2412.000000	10.333300
2411.000000	10.357700
2410.000000	10.362600
2409.000000	10.391200
2408.000000	10.426500
2407.000000	10.440900
2406.000000	10.474500
2405.000000	10.498600
2404.000000	10.509800
2403.000000	10.535200
2402.000000	10.573000
2401.000000	10.588100
2400.000000	10.600000
2399.000000	10.625500
2398.000000	10.633100
2397.000000	10.651200
2396.000000	10.663600
2395.000000	10.670700
2394.000000	10.687000
2393.000000	10.720700
2392.000000	10.740700
2391.000000	10.750200
2390.000000	10.746000
2389.000000	10.753700
2388.000000	10.765400
2387.000000	10.763000
2386.000000	10.772300
2385.000000	10.772100
2384.000000	10.767700
2383.000000	10.758400
2382.000000	10.732100
2381.000000	10.714600
2380.000000	10.708500
2379.000000	10.687800
2378.000000	10.657500
2377.000000	10.637100
2376.000000	10.609000
2375.000000	10.575700
2374.000000	10.554600
2373.000000	10.509200
2372.000000	10.470100
2371.000000	10.448700
2370.000000	10.394300
2369.000000	10.341200
2368.000000	10.293200
2367.000000	10.228900
2366.000000	10.168300
2365.000000	10.098700
2364.000000	10.028200
2363.000000	9.972300
2362.000000	9.901400
2361.000000	9.828900
2360.000000	9.767800
2359.000000	9.696300
2358.000000	9.640600
2357.000000	9.574800
2356.000000	9.515400
2355.000000	9.493200
2354.000000	9.470200
2353.000000	9.451400
2352.000000	9.444100
2351.000000	9.438800
2350.000000	9.444500
2349.000000	9.468900
2348.000000	9.506800
2347.000000	9.540100
2346.000000	9.567500
2345.000000	9.603900
2344.000000	9.648400
2343.000000	9.695500
2342.000000	9.749700
2341.000000	9.768500
2340.000000	9.779100
2339.000000	9.799600
2338.000000	9.801100
2337.000000	9.801600
2336.000000	9.798800
2335.000000	9.781300
2334.000000	9.751700
2333.000000	9.709800
2332.000000	9.672200
2331.000000	9.620800
2330.000000	9.555700
2329.000000	9.490500
2328.000000	9.414300
2327.000000	9.341400
2326.000000	9.262900
2325.000000	9.170800
2324.000000	9.080600
2323.000000	8.981700
2322.000000	8.885300
2321.000000	8.774200
2320.000000	8.647500
2319.000000	8.545800
2318.000000	8.439800
2317.000000	8.318700
2316.000000	8.210800
2315.000000	8.088500
2314.000000	7.993600
2313.000000	7.895300
2312.000000	7.818900
2311.000000	7.731800
2310.000000	7.685400
2309.000000	7.634000
2308.000000	7.601500
2307.000000	7.582800
2306.000000	7.590900
2305.000000	7.633200
2304.000000	7.638700
2303.000000	7.675500
2302.000000	7.740500
2301.000000	7.813500
2300.000000	7.904400
2299.000000	7.987700
2298.000000	8.048200
2297.000000	8.126100
2296.000000	8.197900
2295.000000	8.286400
2294.000000	8.345400
2293.000000	8.391400
2292.000000	8.456400
2291.000000	8.497500
2290.000000	8.533300
2289.000000	8.546100
2288.000000	8.554400
2287.000000	8.551100
2286.000000	8.547600
2285.000000	8.527700
2284.000000	8.501500
2283.000000	8.462400
2282.000000	8.433600
2281.000000	8.391800
2280.000000	8.370400
2279.000000	8.347400
2278.000000	8.321200
2277.000000	8.305700
2276.000000	8.275800
2275.000000	8.264600
2274.000000	8.265900
2273.000000	8.286900
2272.000000	8.279700
2271.000000	8.301900
2270.000000	8.341900
2269.000000	8.411100
2268.000000	8.483700
2267.000000	8.557100
2266.000000	8.660900
2265.000000	8.793200
2264.000000	8.926400
2263.000000	9.096300
2262.000000	9.285300
2261.000000	9.496500
2260.000000	9.692800
2259.000000	9.931400
2258.000000	10.170500
2257.000000	10.409600
2256.000000	10.647400
2255.000000	10.905000
2254.000000	11.165200
2253.000000	11.384300
2252.000000	11.626300
2251.000000	11.846500
2250.000000	12.062800
2249.000000	12.245700
2248.000000	12.431900
2247.000000	12.605000
2246.000000	12.796200
2245.000000	12.958600
2244.000000	13.083100
2243.000000	13.237100
2242.000000	13.344000
2241.000000	13.471300
2240.000000	13.576500
2239.000000	13.683700
2238.000000	13.767200
2237.000000	13.831400
2236.000000	13.915100
2235.000000	13.998700
2234.000000	14.048100
2233.000000	14.108000
2232.000000	14.156500
2231.000000	14.201100
2230.000000	14.234500
2229.000000	14.231900
2228.000000	14.258800
2227.000000	14.295000
2226.000000	14.294600
2225.000000	14.260800
2224.000000	14.273100
2223.000000	14.270500
2222.000000	14.231600
2221.000000	14.230300
2220.000000	14.214700
2219.000000	14.185300
2218.000000	14.150700
2217.000000	14.150500
2216.000000	14.137400
2215.000000	14.094000
2214.000000	14.059600
2213.000000	14.048600
2212.000000	13.991100
2211.000000	13.972900
2210.000000	13.979400
2209.000000	13.945500
2208.000000	13.930000
2207.000000	13.901700
2206.000000	13.873300
2205.000000	13.872700
2204.000000	13.855500
2203.000000	13.841100
2202.000000	13.836100
2201.000000	13.821100
2200.000000	13.816600
2199.000000	13.795300
2198.000000	13.798900
2197.000000	13.788800
2196.000000	13.786000
2195.000000	13.761500
2194.000000	13.750900
2193.000000	13.751800
2192.000000	13.747500
2191.000000	13.739600
2190.000000	13.728900
2189.000000	13.706700
2188.000000	13.701300
2187.000000	13.689400
2186.000000	13.674500
2185.000000	13.656400
2184.000000	13.644600
2183.000000	13.642000
2182.000000	13.624800
2181.000000	13.616000
2180.000000	13.622900
2179.000000	13.600900
2178.000000	13.602200
2177.000000	13.613000
2176.000000	13.603700
2175.000000	13.610300
2174.000000	13.631000
2173.000000	13.636500
2172.000000	13.637800
2171.000000	13.652100
2170.000000	13.676700
2169.000000	13.698400
2168.000000	13.727500
2167.000000	13.738700
2166.000000	13.774100
2165.000000	13.812400
2164.000000	13.845500
2163.000000	13.877900
2162.000000	13.896100
2161.000000	13.935200
2160.000000	13.977800
2159.000000	14.005600
2158.000000	14.043100
2157.000000	14.103700
2156.000000	14.146900
2155.000000	14.181900
2154.000000	14.240700
2153.000000	14.285500
2152.000000	14.331100
2151.000000	14.378300
2150.000000	14.415100
2149.000000	14.468200
2148.000000	14.532200
2147.000000	14.576700
2146.000000	14.611000
2145.000000	14.639000
2144.000000	14.686100
2143.000000	14.741800
2142.000000	14.773700
2141.000000	14.797800
2140.000000	14.833000
2139.000000	14.877800
2138.000000	14.911700
2137.000000	14.935000
2136.000000	14.951400
2135.000000	14.978300
2134.000000	15.007200
2133.000000	15.023700
2132.000000	15.030100
2131.000000	15.042900
2130.000000	15.073200
2129.000000	15.070500
2128.000000	15.064800
2127.000000	15.067700
2126.000000	15.075500
2125.000000	15.068100
2124.000000	15.056200
2123.000000	15.043200
2122.000000	15.038300
2121.000000	15.025600
2120.000000	15.013600
2119.000000	14.986300
2118.000000	14.967700
2117.000000	14.948600
2116.000000	14.922300
2115.000000	14.900700
2114.000000	14.867000
2113.000000	14.836600
2112.000000	14.815500
2111.000000	14.805100
2110.000000	14.788600
2109.000000	14.745900
2108.000000	14.697700
2107.000000	14.671700
2106.000000	14.651200
2105.000000	14.625800
2104.000000	14.595900
2103.000000	14.561600
2102.000000	14.533700
2101.000000	14.516500
2100.000000	14.501500
2099.000000	14.476700
2098.000000	14.457900
2097.000000	14.423900
2096.000000	14.401100
2095.000000	14.390600
2094.000000	14.383800
2093.000000	14.382800
2092.000000	14.357700
2091.000000	14.345900
2090.000000	14.331100
2089.000000	14.328400
2088.000000	14.321700
2087.000000	14.300300
2086.000000	14.285600
2085.000000	14.275200
2084.000000	14.250400
2083.000000	14.240800
2082.000000	14.230100
2081.000000	14.198000
2080.000000	14.180200
2079.000000	14.155300
2078.000000	14.127600
2077.000000	14.094000
2076.000000	14.065300
2075.000000	14.046200
2074.000000	14.012000
2073.000000	13.967400
2072.000000	13.941200
2071.000000	13.915700
2070.000000	13.881000
2069.000000	13.834200
2068.000000	13.809200
2067.000000	13.767100
2066.000000	13.725400
2065.000000	13.683100
2064.000000	13.645300
2063.000000	13.619600
2062.000000	13.570200
2061.000000	13.555000
2060.000000	13.552400
2059.000000	13.543700
2058.000000	13.547000
2057.000000	13.544800
2056.000000	13.567400
2055.000000	13.595400
2054.000000	13.614200
2053.000000	13.664400
2052.000000	13.731600
2051.000000	13.819600
2050.000000	13.905300
2049.000000	14.015800
2048.000000	14.141900
2047.000000	14.267600
2046.000000	14.401500
2045.000000	14.539500
2044.000000	14.705200
2043.000000	14.872300
2042.000000	15.015900
2041.000000	15.181600
2040.000000	15.327700
2039.000000	15.491100
2038.000000	15.654600
2037.000000	15.776600
2036.000000	15.919500
2035.000000	16.067000
2034.000000	16.183500
2033.000000	16.319600
2032.000000	16.432900
2031.000000	16.550500
2030.000000	16.653400
2029.000000	16.749200
2028.000000	16.858800
2027.000000	16.948700
2026.000000	17.040700
2025.000000	17.135700
2024.000000	17.241400
2023.000000	17.311400
2022.000000	17.386200
2021.000000	17.448400
2020.000000	17.532100
2019.000000	17.595300
2018.000000	17.654700
2017.000000	17.717600
2016.000000	17.766800
2015.000000	17.844400
2014.000000	17.893400
2013.000000	17.926500
2012.000000	17.966500
2011.000000	17.998500
2010.000000	18.039300
2009.000000	18.060600
2008.000000	18.096600
2007.000000	18.088900
2006.000000	18.123000
2005.000000	18.123700
2004.000000	18.139800
2003.000000	18.130300
2002.000000	18.110700
2001.000000	18.098300
2000.000000	18.102000
1999.000000	18.075000
1998.000000	18.072900
1997.000000	18.044300
1996.000000	18.006700
1995.000000	17.955300
1994.000000	17.895600
1993.000000	17.874400
1992.000000	17.817400
1991.000000	17.765500
1990.000000	17.715900
1989.000000	17.665800
1988.000000	17.563800
1987.000000	17.526900
1986.000000	17.464000
1985.000000	17.394900
1984.000000	17.334000
1983.000000	17.250400
1982.000000	17.165300
1981.000000	17.103800
1980.000000	17.029500
1979.000000	16.962600
1978.000000	16.880300
1977.000000	16.790500
1976.000000	16.713700
1975.000000	16.662100
1974.000000	16.572500
1973.000000	16.501700
1972.000000	16.439500
1971.000000	16.367900
1970.000000	16.303600
1969.000000	16.226100
1968.000000	16.158500
1967.000000	16.105200
1966.000000	16.038500
1965.000000	15.969700
1964.000000	15.907900
1963.000000	15.836900
1962.000000	15.752900
1961.000000	15.699100
1960.000000	15.604800
1959.000000	15.558100
1958.000000	15.508900
1957.000000	15.440500
1956.000000	15.366200
1955.000000	15.290000
1954.000000	15.245300
1953.000000	15.180500
1952.000000	15.108100
1951.000000	15.068200
1950.000000	15.007300
1949.000000	14.946100
1948.000000	14.913000
1947.000000	14.875100
1946.000000	14.839200
1945.000000	14.811400
1944.000000	14.789500
1943.000000	14.764600
1942.000000	14.752500
1941.000000	14.749300
1940.000000	14.742700
1939.000000	14.730000
1938.000000	14.756800
1937.000000	14.774300
1936.000000	14.801100
1935.000000	14.832900
1934.000000	14.881900
1933.000000	14.930100
1932.000000	15.005900
1931.000000	15.076000
1930.000000	15.178000
1929.000000	15.267600
1928.000000	15.352100
1927.000000	15.462600
1926.000000	15.573600
1925.000000	15.695700
1924.000000	15.840600
1923.000000	15.963600
1922.000000	16.135600
1921.000000	16.314200
1920.000000	16.497500
1919.000000	16.655700
1918.000000	16.815600
1917.000000	17.000500
1916.000000	17.186400
1915.000000	17.412700
1914.000000	17.641400
1913.000000	17.879100
1912.000000	18.111100
1911.000000	18.316400
1910.000000	18.541500
1909.000000	18.775500
1908.000000	19.029300
1907.000000	19.309200
1906.000000	19.582200
1905.000000	19.877100
1904.000000	20.152600
1903.000000	20.418800
1902.000000	20.708400
1901.000000	20.982100
1900.000000	21.287900
1899.000000	21.573200
1898.000000	21.875000
1897.000000	22.134600
1896.000000	22.390200
1895.000000	22.668600
1894.000000	22.950200
1893.000000	23.239400
1892.000000	23.559000
1891.000000	23.857900
1890.000000	24.145500
1889.000000	24.467300
1888.000000	24.766900
1887.000000	25.093700
1886.000000	25.452500
1885.000000	25.876900
1884.000000	26.317000
1883.000000	26.768000
1882.000000	27.237000
1881.000000	27.691900
1880.000000	28.110800
1879.000000	28.572500
1878.000000	29.001500
1877.000000	29.372400
1876.000000	29.729600
1875.000000	30.063700
1874.000000	30.369800
1873.000000	30.649600
1872.000000	30.898900
1871.000000	31.101500
1870.000000	31.282600
1869.000000	31.450500
1868.000000	31.548000
1867.000000	31.628200
1866.000000	31.671500
1865.000000	31.732800
1864.000000	31.788100
1863.000000	31.829300
1862.000000	31.885100
1861.000000	31.910800
1860.000000	31.921100
1859.000000	31.914600
1858.000000	31.890600
1857.000000	31.860000
1856.000000	31.812700
1855.000000	31.762600
1854.000000	31.704600
1853.000000	31.626400
1852.000000	31.559500
1851.000000	31.517400
1850.000000	31.458000
1849.000000	31.385100
1848.000000	31.301100
1847.000000	31.183000
1846.000000	31.077900
1845.000000	31.018600
1844.000000	30.979000
1843.000000	30.976900
1842.000000	30.951500
1841.000000	30.890600
1840.000000	30.823400
1839.000000	30.750400
1838.000000	30.684000
1837.000000	30.607900
1836.000000	30.534000
1835.000000	30.458300
1834.000000	30.365200
1833.000000	30.272300
1832.000000	30.206500
1831.000000	30.128800
1830.000000	30.024000
1829.000000	29.922600
1828.000000	29.832900
1827.000000	29.745500
1826.000000	29.656500
1825.000000	29.599300
1824.000000	29.575500
1823.000000	29.563700
1822.000000	29.536400
1821.000000	29.494800
1820.000000	29.440900
1819.000000	29.406500
1818.000000	29.391700
1817.000000	29.394000
1816.000000	29.399400
1815.000000	29.376300
1814.000000	29.356200
1813.000000	29.332400
1812.000000	29.297700
1811.000000	29.255200
1810.000000	29.209600
1809.000000	29.167500
1808.000000	29.122100
1807.000000	29.082200
1806.000000	29.015900
1805.000000	28.953300
1804.000000	28.895000
1803.000000	28.838600
1802.000000	28.792300
1801.000000	28.740900
1800.000000	28.670700
1799.000000	28.599400
1798.000000	28.544000
1797.000000	28.506000
1796.000000	28.451400
1795.000000	28.402900
1794.000000	28.340500
1793.000000	28.260400
1792.000000	28.196500
1791.000000	28.136200
1790.000000	28.078200
1789.000000	28.005800
1788.000000	27.937100
1787.000000	27.851400
1786.000000	27.760500
1785.000000	27.683000
1784.000000	27.579900
1783.000000	27.491300
1782.000000	27.399900
1781.000000	27.303700
1780.000000	27.214200
1779.000000	27.091300
1778.000000	26.979100
1777.000000	26.857700
1776.000000	26.713900
1775.000000	26.576100
1774.000000	26.407000
1773.000000	26.245700
1772.000000	26.073100
1771.000000	25.911900
1770.000000	25.770500
1769.000000	25.617400
1768.000000	25.461400
1767.000000	25.328700
1766.000000	25.229600
1765.000000	25.169100
1764.000000	25.121300
1763.000000	25.113600
1762.000000	25.136100
1761.000000	25.197800
1760.000000	25.282000
1759.000000	25.346500
1758.000000	25.424000
1757.000000	25.481800
1756.000000	25.548300
1755.000000	25.566300
1754.000000	25.590400
1753.000000	25.576000
1752.000000	25.545200
1751.000000	25.513000
1750.000000	25.452400
1749.000000	25.374100
1748.000000	25.268800
1747.000000	25.155300
1746.000000	24.992200
1745.000000	24.820100
1744.000000	24.605700
1743.000000	24.388200
1742.000000	24.127400
1741.000000	23.847400
1740.000000	23.570000
1739.000000	23.284100
1738.000000	23.050600
1737.000000	22.834000
1736.000000	22.688100
1735.000000	22.587500
1734.000000	22.520800
1733.000000	22.532400
1732.000000	22.592800
1731.000000	22.676900
1730.000000	22.774300
1729.000000	22.909300
1728.000000	23.016700
1727.000000	23.122000
1726.000000	23.219800
1725.000000	23.282500
1724.000000	23.324500
1723.000000	23.362400
1722.000000	23.401900
1721.000000	23.422600
1720.000000	23.478200
1719.000000	23.506600
1718.000000	23.594100
1717.000000	23.671500
1716.000000	23.739500
1715.000000	23.854000
1714.000000	23.918400
1713.000000	24.011000
1712.000000	24.080400
1711.000000	24.101000
1710.000000	24.139100
1709.000000	24.162700
1708.000000	24.152900
1707.000000	24.148500
1706.000000	24.111500
1705.000000	24.076100
1704.000000	24.018800
1703.000000	23.930300
1702.000000	23.806800
1701.000000	23.658900
1700.000000	23.519600
1699.000000	23.365100
1698.000000	23.241700
1697.000000	23.143300
1696.000000	23.116600
1695.000000	23.146700
1694.000000	23.222100
1693.000000	23.378100
1692.000000	23.534700
1691.000000	23.709000
1690.000000	23.835100
1689.000000	23.940300
1688.000000	23.975600
1687.000000	24.002400
1686.000000	24.019800
1685.000000	24.096900
1684.000000	24.263400
1683.000000	24.546100
1682.000000	24.983600
1681.000000	25.494800
1680.000000	26.085200
1679.000000	26.684600
1678.000000	27.299800
1677.000000	27.792100
1676.000000	28.250500
1675.000000	28.646000
1674.000000	29.006000
1673.000000	29.317400
1672.000000	29.579100
1671.000000	29.802300
1670.000000	30.024200
1669.000000	30.232200
1668.000000	30.360100
1667.000000	30.472800
1666.000000	30.604500
1665.000000	30.704800
1664.000000	30.783500
1663.000000	30.867200
1662.000000	30.948200
1661.000000	31.021600
1660.000000	31.059700
1659.000000	31.101400
1658.000000	31.130700
1657.000000	31.141200
1656.000000	31.164600
1655.000000	31.155300
1654.000000	31.156800
1653.000000	31.128600
1652.000000	31.146000
1651.000000	31.125000
1650.000000	31.082900
1649.000000	31.033200
1648.000000	30.991400
1647.000000	30.937100
1646.000000	30.878900
1645.000000	30.830200
1644.000000	30.772100
1643.000000	30.718300
1642.000000	30.662400
1641.000000	30.591100
1640.000000	30.526300
1639.000000	30.460600
1638.000000	30.384300
1637.000000	30.310000
1636.000000	30.238900
1635.000000	30.166500
1634.000000	30.078100
1633.000000	29.983500
1632.000000	29.894600
1631.000000	29.826900
1630.000000	29.739500
1629.000000	29.648000
1628.000000	29.562400
1627.000000	29.461700
1626.000000	29.372800
1625.000000	29.280500
1624.000000	29.187700
1623.000000	29.097900
1622.000000	29.017000
1621.000000	28.921900
1620.000000	28.839500
1619.000000	28.750900
1618.000000	28.670500
1617.000000	28.588300
1616.000000	28.514000
1615.000000	28.429200
1614.000000	28.346700
1613.000000	28.248200
1612.000000	28.171700
1611.000000	28.095300
1610.000000	28.024000
1609.000000	27.950800
1608.000000	27.872100
1607.000000	27.797200
1606.000000	27.722800
1605.000000	27.661100
1604.000000	27.579000
1603.000000	27.506400
1602.000000	27.427800
1601.000000	27.346500
1600.000000	27.282700
1599.000000	27.219500
1598.000000	27.154000
1597.000000	27.076700
1596.000000	27.017400
1595.000000	26.970500
1594.000000	26.927900
1593.000000	26.874000
1592.000000	26.828400
1591.000000	26.785500
1590.000000	26.740200
1589.000000	26.702900
1588.000000	26.665500
1587.000000	26.630400
1586.000000	26.589300
1585.000000	26.561700
1584.000000	26.539300
1583.000000	26.516600
1582.000000	26.505800
1581.000000	26.492800
1580.000000	26.478500
1579.000000	26.473800
1578.000000	26.480000
1577.000000	26.493000
1576.000000	26.503600
1575.000000	26.513700
1574.000000	26.519800
1573.000000	26.538000
1572.000000	26.553100
1571.000000	26.586700
1570.000000	26.626000
1569.000000	26.653700
1568.000000	26.686700
1567.000000	26.728600
1566.000000	26.771600
1565.000000	26.809300
1564.000000	26.847200
1563.000000	26.880700
1562.000000	26.912900
1561.000000	26.945500
1560.000000	26.972900
1559.000000	26.989500
1558.000000	27.016500
1557.000000	27.046700
1556.000000	27.051800
1555.000000	27.037900
1554.000000	27.052700
1553.000000	27.067800
1552.000000	27.040900
1551.000000	27.021300
1550.000000	27.025100
1549.000000	27.011700
1548.000000	26.996200
1547.000000	26.985900
1546.000000	26.977500
1545.000000	26.980800
1544.000000	26.974300
1543.000000	26.954100
1542.000000	26.959500
1541.000000	26.956700
1540.000000	26.950100
1539.000000	26.958900
1538.000000	26.960100
1537.000000	26.957700
1536.000000	26.961100
1535.000000	26.968500
1534.000000	26.972400
1533.000000	26.950300
1532.000000	26.934000
1531.000000	26.931900
1530.000000	26.916400
1529.000000	26.894400
1528.000000	26.882100
1527.000000	26.877500
1526.000000	26.852300
1525.000000	26.827900
1524.000000	26.810700
1523.000000	26.778200
1522.000000	26.746200
1521.000000	26.725400
1520.000000	26.707900
1519.000000	26.681000
1518.000000	26.650300
1517.000000	26.623000
1516.000000	26.600800
1515.000000	26.574900
1514.000000	26.538800
1513.000000	26.519700
1512.000000	26.484800
1511.000000	26.444700
1510.000000	26.408100
1509.000000	26.383400
1508.000000	26.346000
1507.000000	26.314300
1506.000000	26.288200
1505.000000	26.262300
1504.000000	26.229400
1503.000000	26.195400
1502.000000	26.175300
1501.000000	26.164300
1500.000000	26.143600
1499.000000	26.152800
1498.000000	26.131100
1497.000000	26.124600
1496.000000	26.128100
1495.000000	26.110800
1494.000000	26.125200
1493.000000	26.136500
1492.000000	26.166900
1491.000000	26.172000
1490.000000	26.173900
1489.000000	26.191600
1488.000000	26.222100
1487.000000	26.230800
1486.000000	26.250100
1485.000000	26.254900
1484.000000	26.271100
1483.000000	26.301400
1482.000000	26.354500
1481.000000	26.400500
1480.000000	26.428100
1479.000000	26.463000
1478.000000	26.504000
1477.000000	26.552300
1476.000000	26.617800
1475.000000	26.687200
1474.000000	26.755100
1473.000000	26.803500
1472.000000	26.867500
1471.000000	26.934700
1470.000000	26.976900
1469.000000	27.043800
1468.000000	27.090300
1467.000000	27.174000
1466.000000	27.237000
1465.000000	27.295100
1464.000000	27.372200
1463.000000	27.441500
1462.000000	27.544000
1461.000000	27.628600
1460.000000	27.715700
1459.000000	27.831600
1458.000000	27.929800
1457.000000	28.033700
1456.000000	28.153600
1455.000000	28.252800
1454.000000	28.371200
1453.000000	28.496800
1452.000000	28.645100
1451.000000	28.752700
1450.000000	28.854600
1449.000000	28.992700
1448.000000	29.142800
1447.000000	29.293200
1446.000000	29.437100
1445.000000	29.566500
1444.000000	29.676100
1443.000000	29.821300
1442.000000	29.967000
1441.000000	30.112300
1440.000000	30.267800
1439.000000	30.385300
1438.000000	30.520800
1437.000000	30.657600
1436.000000	30.800100
1435.000000	30.958600
1434.000000	31.095200
1433.000000	31.249700
1432.000000	31.400400
1431.000000	31.544100
1430.000000	31.696300
1429.000000	31.911600
1428.000000	32.091700
1427.000000	32.299600
1426.000000	32.534700
1425.000000	32.770600
1424.000000	32.998700
1423.000000	33.225600
1422.000000	33.456000
1421.000000	33.727200
1420.000000	33.982500
1419.000000	34.201700
1418.000000	34.404000
1417.000000	34.629900
1416.000000	34.885000
1415.000000	35.134800
1414.000000	35.353100
1413.000000	35.554500
1412.000000	35.800900
1411.000000	36.103500
1410.000000	36.455200
1409.000000	36.798000
1408.000000	37.151800
1407.000000	37.516900
1406.000000	37.925700
1405.000000	38.319400
1404.000000	38.730600
1403.000000	39.107700
1402.000000	39.507700
1401.000000	39.935000
1400.000000	40.209700
1399.000000	40.413600
1398.000000	40.633300
1397.000000	40.893800
1396.000000	41.102400
1395.000000	41.213600
1394.000000	41.315200
1393.000000	41.451200
1392.000000	41.621800
1391.000000	41.774200
1390.000000	41.954900
1389.000000	42.242900
1388.000000	42.531000
1387.000000	42.813600
1386.000000	43.183000
1385.000000	43.593000
1384.000000	43.993100
1383.000000	44.384400
1382.000000	44.668300
1381.000000	44.840500
1380.000000	44.927300
1379.000000	44.998400
1378.000000	45.062200
1377.000000	45.178500
1376.000000	45.341500
1375.000000	45.589100
1374.000000	45.911100
1373.000000	46.308200
1372.000000	46.725400
1371.000000	47.117300
1370.000000	47.463400
1369.000000	47.824800
1368.000000	48.129700
1367.000000	48.384200
1366.000000	48.615200
1365.000000	48.836500
1364.000000	49.019900
1363.000000	49.212000
1362.000000	49.343700
1361.000000	49.408600
1360.000000	49.428200
1359.000000	49.537900
1358.000000	49.693800
1357.000000	49.945000
1356.000000	50.374100
1355.000000	50.919300
1354.000000	51.544800
1353.000000	52.189300
1352.000000	52.860200
1351.000000	53.508700
1350.000000	54.087700
1349.000000	54.605800
1348.000000	55.116700
1347.000000	55.563400
1346.000000	55.997800
1345.000000	56.432100
1344.000000	56.809000
1343.000000	57.178500
1342.000000	57.538500
1341.000000	57.886000
1340.000000	58.197800
1339.000000	58.503700
1338.000000	58.800100
1337.000000	59.080400
1336.000000	59.337700
1335.000000	59.595700
1334.000000	59.850200
1333.000000	60.070900
1332.000000	60.278200
1331.000000	60.482400
1330.000000	60.680500
1329.000000	60.853300
1328.000000	61.031800
1327.000000	61.189200
1326.000000	61.333000
1325.000000	61.474800
1324.000000	61.613400
1323.000000	61.745000
1322.000000	61.865600
1321.000000	61.983200
1320.000000	62.093400
1319.000000	62.203600
1318.000000	62.305800
1317.000000	62.395800
1316.000000	62.477400
1315.000000	62.564500
1314.000000	62.633900
1313.000000	62.702900
1312.000000	62.769300
1311.000000	62.832900
1310.000000	62.877300
1309.000000	62.928100
1308.000000	62.977800
1307.000000	63.005800
1306.000000	63.018600
1305.000000	63.032200
1304.000000	63.039400
1303.000000	63.043600
1302.000000	63.038000
1301.000000	63.016900
1300.000000	63.000400
1299.000000	62.987400
1298.000000	62.966400
1297.000000	62.937000
1296.000000	62.920300
1295.000000	62.882300
1294.000000	62.837000
1293.000000	62.796600
1292.000000	62.744200
1291.000000	62.691600
1290.000000	62.621000
1289.000000	62.535300
1288.000000	62.459100
1287.000000	62.377100
1286.000000	62.278500
1285.000000	62.168900
1284.000000	62.061200
1283.000000	61.966000
1282.000000	61.862100
1281.000000	61.752800
1280.000000	61.647400
1279.000000	61.539900
1278.000000	61.445200
1277.000000	61.348900
1276.000000	61.258300
1275.000000	61.176000
1274.000000	61.095400
1273.000000	61.012800
1272.000000	60.943300
1271.000000	60.870700
1270.000000	60.783000
1269.000000	60.715700
1268.000000	60.641800
1267.000000	60.568300
1266.000000	60.493000
1265.000000	60.418000
1264.000000	60.343500
1263.000000	60.282300
1262.000000	60.217200
1261.000000	60.144600
1260.000000	60.082200
1259.000000	60.012600
1258.000000	59.928700
1257.000000	59.849800
1256.000000	59.766300
1255.000000	59.691900
1254.000000	59.595800
1253.000000	59.502800
1252.000000	59.411200
1251.000000	59.296400
1250.000000	59.182100
1249.000000	59.062200
1248.000000	58.945100
1247.000000	58.804400
1246.000000	58.652800
1245.000000	58.495400
1244.000000	58.310300
1243.000000	58.110400
1242.000000	57.927200
1241.000000	57.732500
1240.000000	57.537300
1239.000000	57.324800
1238.000000	57.121100
1237.000000	56.905900
1236.000000	56.689700
1235.000000	56.458700
1234.000000	56.220100
1233.000000	56.002400
1232.000000	55.770500
1231.000000	55.551800
1230.000000	55.302600
1229.000000	55.057800
1228.000000	54.827800
1227.000000	54.598600
1226.000000	54.366700
1225.000000	54.140100
1224.000000	53.908300
1223.000000	53.675900
1222.000000	53.454700
1221.000000	53.256200
1220.000000	53.055200
1219.000000	52.857100
1218.000000	52.676200
1217.000000	52.508000
1216.000000	52.351300
1215.000000	52.191300
1214.000000	52.038600
1213.000000	51.904300
1212.000000	51.763700
1211.000000	51.620400
1210.000000	51.517700
1209.000000	51.429300
1208.000000	51.324800
1207.000000	51.257100
1206.000000	51.221800
1205.000000	51.178900
1204.000000	51.146500
1203.000000	51.117500
1202.000000	51.079800
1201.000000	51.023800
1200.000000	50.965100
1199.000000	50.869000
1198.000000	50.705100
1197.000000	50.504100
1196.000000	50.247000
1195.000000	49.903500
1194.000000	49.490100
1193.000000	49.018200
1192.000000	48.485000
1191.000000	47.953200
1190.000000	47.488700
1189.000000	47.105800
1188.000000	46.837600
1187.000000	46.731800
1186.000000	46.770300
1185.000000	46.957700
1184.000000	47.288800
1183.000000	47.738900
1182.000000	48.273200
1181.000000	48.867100
1180.000000	49.429300
1179.000000	49.970000
1178.000000	50.432100
1177.000000	50.849000
1176.000000	51.196300
1175.000000	51.544700
1174.000000	51.885600
1173.000000	52.272500
1172.000000	52.654300
1171.000000	53.074200
1170.000000	53.458600
1169.000000	53.874300
1168.000000	54.294600
1167.000000	54.702900
1166.000000	55.145100
1165.000000	55.590800
1164.000000	56.029300
1163.000000	56.470100
1162.000000	56.901200
1161.000000	57.313200
1160.000000	57.706500
1159.000000	58.096600
1158.000000	58.475200
1157.000000	58.774700
1156.000000	59.044500
1155.000000	59.209800
1154.000000	59.316700
1153.000000	59.370700
1152.000000	59.384500
1151.000000	59.332200
1150.000000	59.301900
1149.000000	59.262600
1148.000000	59.255700
1147.000000	59.319400
1146.000000	59.495600
1145.000000	59.717400
1144.000000	60.031000
1143.000000	60.381100
1142.000000	60.767600
1141.000000	61.152400
1140.000000	61.557400
1139.000000	61.980700
1138.000000	62.396500
1137.000000	62.837800
1136.000000	63.288200
1135.000000	63.726100
1134.000000	64.090100
1133.000000	64.390000
1132.000000	64.735100
1131.000000	65.028900
1130.000000	65.262100
1129.000000	65.457800
1128.000000	65.618600
1127.000000	65.742900
1126.000000	65.843800
1125.000000	65.904600
1124.000000	65.978100
1123.000000	66.022400
1122.000000	66.080900
1121.000000	66.087200
1120.000000	66.110700
1119.000000	66.109400
1118.000000	66.100600
1117.000000	66.078400
1116.000000	66.050200
1115.000000	66.007500
1114.000000	65.969200
1113.000000	65.928900
1112.000000	65.887100
1111.000000	65.859900
1110.000000	65.820200
1109.000000	65.775600
1108.000000	65.721000
1107.000000	65.681600
1106.000000	65.644300
1105.000000	65.574700
1104.000000	65.543300
1103.000000	65.493900
1102.000000	65.446900
1101.000000	65.384800
1100.000000	65.333900
1099.000000	65.260100
1098.000000	65.192000
1097.000000	65.129900
1096.000000	65.057200
1095.000000	64.985200
1094.000000	64.908100
1093.000000	64.839000
1092.000000	64.756100
1091.000000	64.665100
1090.000000	64.593200
1089.000000	64.497400
1088.000000	64.415100
1087.000000	64.332700
1086.000000	64.243600
1085.000000	64.151100
1084.000000	64.081900
1083.000000	63.990200
1082.000000	63.901800
1081.000000	63.820500
1080.000000	63.744600
1079.000000	63.676300
1078.000000	63.589100
1077.000000	63.515600
1076.000000	63.418700
1075.000000	63.348300
1074.000000	63.272600
1073.000000	63.183700
1072.000000	63.088200
1071.000000	63.003400
1070.000000	62.922600
1069.000000	62.849000
1068.000000	62.770100
1067.000000	62.668200
1066.000000	62.574100
1065.000000	62.485900
1064.000000	62.401100
1063.000000	62.316000
1062.000000	62.218200
1061.000000	62.120600
1060.000000	62.026400
1059.000000	61.931100
1058.000000	61.840400
1057.000000	61.742400
1056.000000	61.638200
1055.000000	61.541500
1054.000000	61.457100
1053.000000	61.369700
1052.000000	61.283000
1051.000000	61.188000
1050.000000	61.095500
1049.000000	61.020800
1048.000000	60.959800
1047.000000	60.894600
1046.000000	60.815600
1045.000000	60.739900
1044.000000	60.680300
1043.000000	60.624500
1042.000000	60.562000
1041.000000	60.497000
1040.000000	60.447100
1039.000000	60.393400
1038.000000	60.341200
1037.000000	60.291500
1036.000000	60.222700
1035.000000	60.162700
1034.000000	60.105600
1033.000000	60.051100
1032.000000	60.000100
1031.000000	59.930600
1030.000000	59.857500
1029.000000	59.793300
1028.000000	59.739800
1027.000000	59.670800
1026.000000	59.597900
1025.000000	59.530700
1024.000000	59.468500
1023.000000	59.407600
1022.000000	59.347000
1021.000000	59.286900
1020.000000	59.235400
1019.000000	59.185200
1018.000000	59.130000
1017.000000	59.081000
1016.000000	59.046100
1015.000000	59.023500
1014.000000	58.989000
1013.000000	58.968500
1012.000000	58.975300
1011.000000	58.967500
1010.000000	58.976000
1009.000000	58.996100
1008.000000	59.000300
1007.000000	59.023200
1006.000000	59.038900
1005.000000	59.041500
1004.000000	59.057200
1003.000000	59.073700
1002.000000	59.090400
1001.000000	59.115800
1000.000000	59.138300
999.000000	59.152500
998.000000	59.173300
997.000000	59.221400
996.000000	59.256200
995.000000	59.294700
994.000000	59.336200
993.000000	59.364100
992.000000	59.411000
991.000000	59.461000
990.000000	59.520600
989.000000	59.578800
988.000000	59.625500
987.000000	59.681500
986.000000	59.751300
985.000000	59.817200
984.000000	59.875100
983.000000	59.939700
982.000000	60.034800
981.000000	60.111700
980.000000	60.178400
979.000000	60.259200
978.000000	60.361800
977.000000	60.446500
976.000000	60.521000
975.000000	60.595600
974.000000	60.673900
973.000000	60.763400
972.000000	60.856200
971.000000	60.918300
970.000000	60.992700
969.000000	61.056100
968.000000	61.142500
967.000000	61.237000
966.000000	61.303600
965.000000	61.392600
964.000000	61.454800
963.000000	61.537500
962.000000	61.648700
961.000000	61.736500
960.000000	61.830400
959.000000	61.924600
958.000000	62.035600
957.000000	62.138000
956.000000	62.209100
955.000000	62.298400
954.000000	62.396500
953.000000	62.471700
952.000000	62.534600
951.000000	62.619800
950.000000	62.693400
949.000000	62.760300
948.000000	62.852200
947.000000	62.910500
946.000000	62.984900
945.000000	63.088700
944.000000	63.199600
943.000000	63.280200
942.000000	63.379900
941.000000	63.498400
940.000000	63.630200
939.000000	63.713000
938.000000	63.822300
937.000000	63.953400
936.000000	64.100900
935.000000	64.203500
934.000000	64.301900
933.000000	64.452800
932.000000	64.582700
931.000000	64.707300
930.000000	64.829200
929.000000	64.942300
928.000000	65.061100
927.000000	65.218400
926.000000	65.323700
925.000000	65.459800
924.000000	65.588200
923.000000	65.708900
922.000000	65.823700
921.000000	65.949800
920.000000	66.106500
919.000000	66.237300
918.000000	66.348600
917.000000	66.472100
916.000000	66.596200
915.000000	66.729700
914.000000	66.872200
913.000000	66.984500
912.000000	67.120200
911.000000	67.253900
910.000000	67.391800
909.000000	67.547100
908.000000	67.703100
907.000000	67.848200
906.000000	68.029100
905.000000	68.196800
904.000000	68.354500
903.000000	68.549800
902.000000	68.731100
901.000000	68.891600
900.000000	69.076400
899.000000	69.264500
898.000000	69.451200
897.000000	69.635100
896.000000	69.828200
895.000000	70.001900
894.000000	70.181900
893.000000	70.358300
892.000000	70.535200
891.000000	70.708800
890.000000	70.868300
889.000000	71.040300
888.000000	71.214100
887.000000	71.385100
886.000000	71.542300
885.000000	71.704300
884.000000	71.862600
883.000000	72.010200
882.000000	72.162000
881.000000	72.327900
880.000000	72.469000
879.000000	72.602300
878.000000	72.700200
877.000000	72.802600
876.000000	72.855900
875.000000	72.864700
874.000000	72.856200
873.000000	72.862600
872.000000	72.937900
871.000000	73.124500
870.000000	73.356400
869.000000	73.577600
868.000000	73.799900
867.000000	74.052300
866.000000	74.269600
865.000000	74.489200
864.000000	74.711600
863.000000	74.946800
862.000000	75.168900
861.000000	75.429500
860.000000	75.659900
859.000000	75.906900
858.000000	76.144100
857.000000	75.806140
856.000000	75.877555
855.000000	76.171746
854.000000	76.888973
853.000000	77.020992
852.000000	77.132677
851.000000	77.146960
850.000000	77.137537
849.000000	77.629906
848.000000	77.947604
847.000000	78.144591
846.000000	78.622180
845.000000	78.585679
844.000000	78.686553
843.000000	79.107903
842.000000	79.767402
841.000000	79.841892
840.000000	80.178139
839.000000	80.675863
838.000000	80.973327
837.000000	81.303622
836.000000	81.387138
835.000000	81.542566
834.000000	81.993969
833.000000	82.546643
832.000000	82.750177
831.000000	83.283410
830.000000	83.591190
829.000000	83.856021
828.000000	84.226686
827.000000	84.440832
826.000000	84.859206
825.000000	84.988746
824.000000	85.617993
823.000000	85.793853
822.000000	86.446707
821.000000	86.665813
820.000000	87.080318
819.000000	87.498891
818.000000	87.744182
817.000000	88.083305
816.000000	88.516855
815.000000	88.840405
814.000000	89.136084
813.000000	89.394766
812.000000	89.892391
811.000000	90.192037
810.000000	90.442089
809.000000	90.782998
808.000000	91.068262
807.000000	91.233310
806.000000	91.609430
805.000000	92.075811
804.000000	92.348578
803.000000	92.604085
802.000000	92.810793
801.000000	93.026625
800.000000	93.245632
799.000000	93.482294
798.000000	93.774203
797.000000	93.976447
796.000000	94.064824
795.000000	94.216383
794.000000	94.492125
793.000000	94.714404
792.000000	94.800301
791.000000	94.915855
790.000000	95.130695
789.000000	95.138035
788.000000	95.166403
787.000000	95.214410
786.000000	95.291776
785.000000	95.364580
784.000000	95.380252
783.000000	95.422605
782.000000	95.481721
781.000000	95.511676
780.000000	95.441153
779.000000	95.450278
778.000000	95.478150
777.000000	95.408024
776.000000	95.310027
775.000000	95.420324
774.000000	95.385211
773.000000	95.270352
772.000000	95.209550
771.000000	95.212724
770.000000	95.189613
769.000000	95.101336
768.000000	94.937676
767.000000	94.924286
766.000000	95.012166
765.000000	94.894827
764.000000	94.830355
763.000000	94.902564
762.000000	94.808236
761.000000	94.710933
760.000000	94.621069
759.000000	94.452945
758.000000	94.470601
757.000000	94.434992
756.000000	94.259529
755.000000	94.197735
754.000000	94.173236
753.000000	94.094679
752.000000	94.042705
751.000000	93.948774
750.000000	93.796322
749.000000	93.596955
748.000000	93.450256
747.000000	93.409688
746.000000	93.184334
745.000000	92.885878
744.000000	92.704265
743.000000	92.491805
742.000000	92.260697
741.000000	92.023539
740.000000	91.798681
739.000000	91.610521
738.000000	91.355807
737.000000	91.023131
736.000000	90.743422
735.000000	90.482955
734.000000	90.165455
733.000000	89.868189
732.000000	89.488697
731.000000	89.133803
730.000000	88.819873
729.000000	88.474006
728.000000	88.071402
727.000000	87.659872
726.000000	87.379270
725.000000	87.043024
724.000000	86.638337
723.000000	86.226708
722.000000	85.836404
721.000000	85.499959
720.000000	85.069683
719.000000	84.689595
718.000000	84.356622
717.000000	83.960069
716.000000	83.583552
715.000000	83.187396
714.000000	82.855316
713.000000	82.513614
712.000000	82.210694
711.000000	81.842509
710.000000	81.460438
709.000000	81.110206
708.000000	80.702644
707.000000	80.365504
706.000000	80.082422
705.000000	79.818186
704.000000	79.387017
703.000000	78.958030
702.000000	78.651540
701.000000	78.298630
700.000000	77.993528
699.000000	77.666407
698.000000	77.275607
697.000000	76.893932
696.000000	76.534377
695.000000	76.222233
694.000000	75.822704
693.000000	75.443212
692.000000	75.067687
691.000000	74.695733
690.000000	74.377439
689.000000	73.976225
688.000000	73.591079
687.000000	73.344101
686.000000	72.970560
685.000000	72.648001
684.000000	72.332287
683.000000	72.002686
682.000000	71.610993
681.000000	71.310256
680.000000	71.012692
679.000000	70.797554
678.000000	70.526176
677.000000	70.305880
676.000000	69.975387
675.000000	69.704604
674.000000	69.509403
673.000000	69.286726
672.000000	69.013464
671.000000	68.753096
670.000000	68.553431
669.000000	68.383423
668.000000	68.130990
667.000000	67.817854
666.000000	67.609064
665.000000	67.314873
664.000000	67.041710
663.000000	66.753272
662.000000	66.477232
661.000000	66.157649
660.000000	65.832115
659.000000	65.507275
658.000000	65.182138
657.000000	64.811275
656.000000	64.430989
655.000000	64.049512
654.000000	63.692238
653.000000	63.299256
652.000000	62.964497
651.000000	62.652353
650.000000	62.292203
649.000000	61.949112
648.000000	61.696878
647.000000	61.401794
646.000000	61.133987
645.000000	60.919741
644.000000	60.716407
643.000000	60.551061
642.000000	60.420926
641.000000	60.220567
640.000000	60.161749
639.000000	60.110072
638.000000	60.096384
637.000000	60.064941
636.000000	60.056907
635.000000	60.102037
634.000000	60.210053
633.000000	60.341675
632.000000	60.449294
631.000000	60.686650
630.000000	60.867767
629.000000	61.188838
628.000000	61.463489
627.000000	61.768491
626.000000	62.070419
625.000000	62.487503
624.000000	62.838529
623.000000	63.237958
622.000000	63.720507
621.000000	64.197997
620.000000	64.614784
619.000000	65.167855
618.000000	65.612513
617.000000	66.121347
616.000000	66.646744
615.000000	67.212412
614.000000	67.768062
613.000000	68.349302
612.000000	68.941751
611.000000	69.550367
610.000000	70.203618
609.000000	70.762640
608.000000	71.340508
607.000000	71.988204
606.000000	72.599102
605.000000	73.094842
604.000000	73.647616
603.000000	74.194934
602.000000	74.696229
601.000000	75.171933
600.000000	75.621056
599.000000	76.009772
598.000000	76.379941
597.000000	76.670264
596.000000	76.999567
595.000000	77.266779
594.000000	77.551448
593.000000	77.791780
592.000000	78.023879
591.000000	78.216700
590.000000	78.467050
589.000000	78.651837
588.000000	78.796949
587.000000	78.973106
586.000000	79.082907
585.000000	79.216116
584.000000	79.298244
583.000000	79.390984
582.000000	79.414294
581.000000	79.475988
580.000000	79.514473
579.000000	79.481642
578.000000	79.474798
577.000000	79.441471
576.000000	79.402094
575.000000	79.369461
574.000000	79.190923
573.000000	79.139444
572.000000	79.031627
571.000000	78.827995
570.000000	78.675047
569.000000	78.528051
568.000000	78.381947
567.000000	78.172364
566.000000	77.942645
565.000000	77.682475
564.000000	77.394136
563.000000	77.061758
562.000000	76.763996
561.000000	76.462366
560.000000	76.080394
559.000000	75.625916
558.000000	75.171537
557.000000	74.796111
556.000000	74.351155
555.000000	73.912546
554.000000	73.416508
553.000000	72.891011
552.000000	72.349744
551.000000	71.780108
550.000000	71.186866
549.000000	70.578052
548.000000	69.922420
547.000000	69.308547
546.000000	68.603421
545.000000	67.882624
544.000000	67.171745
543.000000	66.449261
542.000000	65.662603
541.000000	64.890823
540.000000	64.085716
539.000000	63.304116
538.000000	62.515078
537.000000	61.730205
536.000000	60.875801
535.000000	60.058196
534.000000	59.245353
533.000000	58.412076
532.000000	57.554300
531.000000	56.747606
530.000000	55.918099
529.000000	55.116364
528.000000	54.321672
527.000000	53.519639
526.000000	52.731295
525.000000	51.942752
524.000000	51.182081
523.000000	50.430932
522.000000	49.638323
521.000000	48.873089
520.000000	48.129974
519.000000	47.411557
518.000000	46.714168
517.000000	46.006364
516.000000	45.346269
515.000000	44.685778
514.000000	44.026278
513.000000	43.397031
512.000000	42.788613
511.000000	42.202414
510.000000	41.597467
509.000000	41.043900
508.000000	40.504121
507.000000	40.007388
506.000000	39.562134
505.000000	39.078296
504.000000	38.598922
503.000000	38.194335
502.000000	37.769414
501.000000	37.372862
500.000000	36.994460
499.000000	36.650973
498.000000	36.278325
497.000000	35.918372
496.000000	35.578257
495.000000	35.231794
494.000000	34.910129
493.000000	34.587669
492.000000	34.248050
491.000000	33.898711
490.000000	33.588848
489.000000	33.226614
488.000000	32.896319
487.000000	32.546583
486.000000	32.183060
485.000000	31.826877
484.000000	31.469801
483.000000	31.095268
482.000000	30.722718
481.000000	30.380124
480.000000	30.010153
479.000000	29.634033
478.000000	29.272196
477.000000	28.893299
476.000000	28.532156
475.000000	28.194918
474.000000	27.877815
473.000000	27.589674
472.000000	27.313436
471.000000	27.023014
470.000000	26.748661
469.000000	26.514875
468.000000	26.287438
467.000000	26.068630
466.000000	25.862022
465.000000	25.674557
464.000000	25.518435
463.000000	25.381754
462.000000	25.252413
461.000000	25.138744
460.000000	25.028547
459.000000	24.929656
458.000000	24.851992
457.000000	24.783255
456.000000	24.715212
455.000000	24.684167
454.000000	24.647963
453.000000	24.612355
452.000000	24.587558
451.000000	24.562662
450.000000	24.552049
449.000000	24.556512
448.000000	24.520209
447.000000	24.467937
446.000000	24.419236
445.000000	24.356054
444.000000	24.324016
443.000000	24.273827
442.000000	24.206280
441.000000	24.097372
440.000000	23.960493
439.000000	23.869538
438.000000	23.751008
437.000000	23.604508
436.000000	23.458801
435.000000	23.290083
434.000000	23.112933
433.000000	22.900572
432.000000	22.703585
431.000000	22.503127
430.000000	22.281244
429.000000	22.056881
428.000000	21.796711
427.000000	21.544378
426.000000	21.303550
425.000000	21.015608
424.000000	20.701480
423.000000	20.404016
422.000000	20.114189
421.000000	19.795301
420.000000	19.439911
419.000000	19.124692
418.000000	18.783585
417.000000	18.417186
416.000000	18.090660
415.000000	17.716325
414.000000	17.320367
413.000000	16.932741
412.000000	16.551067
411.000000	16.174054
410.000000	15.790297
409.000000	15.388586
408.000000	15.015839
407.000000	14.634759
406.000000	14.221642
405.000000	13.834215
404.000000	13.469997
403.000000	13.102010
402.000000	12.743347
401.000000	12.357309
400.000000	12.012234
399.000000	11.666168
398.000000	11.313953
397.000000	10.969771
396.000000	10.670323
395.000000	10.359469
394.000000	10.057938
393.000000	9.748869
392.000000	9.463803
391.000000	9.213651
390.000000	8.961119
389.000000	8.734574
388.000000	8.477480
387.000000	8.245678
386.000000	8.041351
385.000000	7.875112
384.000000	7.708775
383.000000	7.522103
382.000000	7.385026
381.000000	7.231285
380.000000	7.090636
379.000000	6.972702
378.000000	6.867067
377.000000	6.776409
376.000000	6.684661
375.000000	6.511281
374.000000	6.514554
373.000000	6.478549
372.000000	6.357936
371.000000	6.295051
370.000000	6.304672
369.000000	6.274420
368.000000	6.193880
367.000000	6.178803
366.000000	6.203600
365.000000	6.128713
364.000000	6.022483
363.000000	5.998877
362.000000	5.978841
361.000000	5.921212
360.000000	5.979237
359.000000	5.812999
358.000000	5.802088
357.000000	5.739005
356.000000	5.842755
355.000000	5.744658
354.000000	5.747039
353.000000	5.707364
352.000000	5.682963
351.000000	5.667887
350.000000	5.764198
349.000000	5.738509
348.000000	5.669474
347.000000	5.684253
346.000000	5.623451
345.000000	5.727201
344.000000	5.633965
343.000000	5.637337
342.000000	5.695858
341.000000	5.668184
340.000000	5.586454
339.000000	5.657274
338.000000	5.681476
337.000000	5.626625
336.000000	5.526842
335.000000	5.680980
334.000000	5.533487
333.000000	5.579114
332.000000	5.544696
331.000000	5.534579
330.000000	5.590223
329.000000	5.528032
328.000000	5.498573
327.000000	5.508591
326.000000	5.532000
325.000000	5.505417
324.000000	5.688121
323.000000	5.345626
322.000000	5.498871
321.000000	5.466040
320.000000	5.605795
319.000000	5.517617
318.000000	5.782250
317.000000	5.755767
316.000000	5.601034
315.000000	5.578023
314.000000	5.613036
313.000000	5.620674
312.000000	5.596273
311.000000	5.606886
310.000000	5.559772
309.000000	5.591116
308.000000	5.617995
307.000000	5.607482
306.000000	5.625534
305.000000	5.600737
304.000000	5.626129
303.000000	5.635353
302.000000	5.624343
301.000000	5.649934
300.000000	5.665506
299.000000	5.663423
298.000000	5.669771
297.000000	5.665110
296.000000	5.622261
295.000000	5.659853
294.000000	5.694568
293.000000	5.696552
292.000000	5.691990
291.000000	5.679591
290.000000	5.675822
289.000000	5.696255
288.000000	5.663820
287.000000	5.735731
286.000000	5.744162
285.000000	5.738013
284.000000	5.747832
283.000000	5.758842
282.000000	5.758247
281.000000	5.765686
280.000000	5.811213
279.000000	5.797823
278.000000	5.817462
277.000000	5.832043
276.000000	5.824802
275.000000	5.820339
274.000000	5.835713
273.000000	5.846623
272.000000	5.876975
271.000000	5.895324
270.000000	5.904946
269.000000	5.913079
268.000000	5.970310
267.000000	5.936686
266.000000	5.991338
265.000000	5.954837
264.000000	6.020995
263.000000	6.074755
262.000000	6.073862
261.000000	6.120084
260.000000	6.140715
259.000000	6.148055
258.000000	6.191896
257.000000	6.214412
256.000000	6.209948
255.000000	6.162140
254.000000	6.227306
253.000000	6.248036
252.000000	6.260633
251.000000	6.277297
250.000000	6.276503
