PE UV       SUBTECH     SPECTRUM    ASCII       PEDS        4.00        
   -1
CICIMAUCR0018-1.Sample.ASC
24/03/08
12:50:34.00
24/03/08
12:50:34.00
Vinicio Soto Monge
c. cupreomarginata
250,000000
1
Lambda 1050
1050L1511233
PerkinElmer UV WinLab 6.3.2.0749 / 2.02.05 Lambda 900 UV/VIS/NIR, Aug  7 2015 09:38:08

0
0
3350/servo 860,8/2
0
0
UV/VIS
1
1
1
DoubleDePol,CommonBeamDepol,RBeamAtt,SBeamAtt,60mm sphere, WB InGaAs Detector
0
0
0
0
Program
Program
3350/servo 860,8/2
3350/0,2 860,8/0,2
3350/0,2 860,8/0,2
0
15.00
 
 
 
0
 
860,8
319,2
860,8
Front
100
on
S:100 R:100
0
0
0
0
 
0
 
 
 
0
 
 
0
0
0
0
0
 
 
 
 
0
0


0
0
#HDR
-1
-1
#GR
nm
%R
1.0
0.0
2500,000000
-1,000000
2251
8
27,295000
2,488900
#DATA
501.000000	1999.000000	8.189416
502.000000	1998.000000	8.173321
503.000000	1997.000000	8.176184
504.000000	1996.000000	8.175987
505.000000	1995.000000	8.151795
506.000000	1994.000000	8.126320
507.000000	1993.000000	8.119112
508.000000	1992.000000	8.111607
509.000000	1991.000000	8.084453
510.000000	1990.000000	8.084552
511.000000	1989.000000	8.051967
512.000000	1988.000000	8.036663
513.000000	1987.000000	8.010002
514.000000	1986.000000	8.010694
515.000000	1985.000000	7.978208
516.000000	1984.000000	7.943056
517.000000	1983.000000	7.904349
518.000000	1982.000000	7.885983
519.000000	1981.000000	7.852016
520.000000	1980.000000	7.825356
521.000000	1979.000000	7.822295
522.000000	1978.000000	7.795734
523.000000	1977.000000	7.779046
524.000000	1976.000000	7.739747
525.000000	1975.000000	7.722566
526.000000	1974.000000	7.708545
527.000000	1973.000000	7.672998
528.000000	1972.000000	7.648806
529.000000	1971.000000	7.613358
530.000000	1970.000000	7.585809
531.000000	1969.000000	7.562408
532.000000	1968.000000	7.554015
533.000000	1967.000000	7.514222
534.000000	1966.000000	7.500299
535.000000	1965.000000	7.487167
536.000000	1964.000000	7.442634
537.000000	1963.000000	7.429897
538.000000	1962.000000	7.401657
539.000000	1961.000000	7.388326
540.000000	1960.000000	7.362259
541.000000	1959.000000	7.349027
542.000000	1958.000000	7.333327
543.000000	1957.000000	7.290671
544.000000	1956.000000	7.287610
545.000000	1955.000000	7.244855
546.000000	1954.000000	7.245941
547.000000	1953.000000	7.218491
548.000000	1952.000000	7.188276
549.000000	1951.000000	7.144435
550.000000	1950.000000	7.134067
551.000000	1949.000000	7.118269
552.000000	1948.000000	7.095163
553.000000	1947.000000	7.098520
554.000000	1946.000000	7.095064
555.000000	1945.000000	7.052211
556.000000	1944.000000	7.044706
557.000000	1943.000000	7.026834
558.000000	1942.000000	7.036313
559.000000	1941.000000	7.033055
560.000000	1940.000000	7.020811
561.000000	1939.000000	7.012813
562.000000	1938.000000	7.019626
563.000000	1937.000000	7.015578
564.000000	1936.000000	7.032166
565.000000	1935.000000	7.027920
566.000000	1934.000000	7.060505
567.000000	1933.000000	7.064060
568.000000	1932.000000	7.103655
569.000000	1931.000000	7.116491
570.000000	1930.000000	7.147496
571.000000	1929.000000	7.184425
572.000000	1928.000000	7.227575
573.000000	1927.000000	7.241399
574.000000	1926.000000	7.278822
575.000000	1925.000000	7.321182
576.000000	1924.000000	7.396522
577.000000	1923.000000	7.452212
578.000000	1922.000000	7.492499
579.000000	1921.000000	7.550954
580.000000	1920.000000	7.594597
581.000000	1919.000000	7.653842
582.000000	1918.000000	7.737575
583.000000	1917.000000	7.845598
584.000000	1916.000000	7.909582
585.000000	1915.000000	7.989958
586.000000	1914.000000	8.059669
587.000000	1913.000000	8.130368
588.000000	1912.000000	8.210151
589.000000	1911.000000	8.279270
590.000000	1910.000000	8.381961
591.000000	1909.000000	8.480900
592.000000	1908.000000	8.578457
593.000000	1907.000000	8.668410
594.000000	1906.000000	8.776038
595.000000	1905.000000	8.859080
596.000000	1904.000000	8.956735
597.000000	1903.000000	9.046985
598.000000	1902.000000	9.145924
599.000000	1901.000000	9.257699
600.000000	1900.000000	9.359403
601.000000	1899.000000	9.453404
602.000000	1898.000000	9.580880
603.000000	1897.000000	9.683274
604.000000	1896.000000	9.781818
605.000000	1895.000000	9.893989
606.000000	1894.000000	10.012182
607.000000	1893.000000	10.124846
608.000000	1892.000000	10.208875
609.000000	1891.000000	10.294286
610.000000	1890.000000	10.390362
611.000000	1889.000000	10.484561
612.000000	1888.000000	10.609173
613.000000	1887.000000	10.753039
614.000000	1886.000000	10.863333
615.000000	1885.000000	10.981329
616.000000	1884.000000	11.139612
617.000000	1883.000000	11.270444
618.000000	1882.000000	11.428726
619.000000	1881.000000	11.588984
620.000000	1880.000000	11.749932
621.000000	1879.000000	11.906931
622.000000	1878.000000	12.061264
623.000000	1877.000000	12.177581
624.000000	1876.000000	12.302489
625.000000	1875.000000	12.414956
626.000000	1874.000000	12.491579
627.000000	1873.000000	12.576003
628.000000	1872.000000	12.656971
629.000000	1871.000000	12.711871
630.000000	1870.000000	12.730237
631.000000	1869.000000	12.755515
632.000000	1868.000000	12.806564
633.000000	1867.000000	12.846258
634.000000	1866.000000	12.876967
635.000000	1865.000000	12.913797
636.000000	1864.000000	12.954676
637.000000	1863.000000	12.977683
638.000000	1862.000000	13.011058
639.000000	1861.000000	13.003948
640.000000	1860.000000	12.975214
641.000000	1859.000000	12.947863
642.000000	1858.000000	12.940754
643.000000	1857.000000	12.932459
644.000000	1856.000000	12.915476
645.000000	1855.000000	12.903726
646.000000	1854.000000	12.867191
647.000000	1853.000000	12.835693
648.000000	1852.000000	12.811008
649.000000	1851.000000	12.808638
650.000000	1850.000000	12.823153
651.000000	1849.000000	12.792938
652.000000	1848.000000	12.715228
653.000000	1847.000000	12.620733
654.000000	1846.000000	12.563759
655.000000	1845.000000	12.566228
656.000000	1844.000000	12.583211
657.000000	1843.000000	12.606712
658.000000	1842.000000	12.598812
659.000000	1841.000000	12.546479
660.000000	1840.000000	12.500959
661.000000	1839.000000	12.475484
662.000000	1838.000000	12.461759
663.000000	1837.000000	12.426508
664.000000	1836.000000	12.380791
665.000000	1835.000000	12.345442
666.000000	1834.000000	12.329446
667.000000	1833.000000	12.322435
668.000000	1832.000000	12.309697
669.000000	1831.000000	12.276619
670.000000	1830.000000	12.226557
671.000000	1829.000000	12.175409
672.000000	1828.000000	12.142627
673.000000	1827.000000	12.110338
674.000000	1826.000000	12.072718
675.000000	1825.000000	12.054846
676.000000	1824.000000	12.053068
677.000000	1823.000000	12.060869
678.000000	1822.000000	12.047835
679.000000	1821.000000	12.015349
680.000000	1820.000000	11.978716
681.000000	1819.000000	11.964300
682.000000	1818.000000	11.975359
683.000000	1817.000000	11.980296
684.000000	1816.000000	11.985233
685.000000	1815.000000	11.985233
686.000000	1814.000000	11.979309
687.000000	1813.000000	11.984048
688.000000	1812.000000	11.965880
689.000000	1811.000000	11.942379
690.000000	1810.000000	11.940503
691.000000	1809.000000	11.933591
692.000000	1808.000000	11.929938
693.000000	1807.000000	11.918879
694.000000	1806.000000	11.887183
695.000000	1805.000000	11.859042
696.000000	1804.000000	11.849562
697.000000	1803.000000	11.832283
698.000000	1802.000000	11.802068
699.000000	1801.000000	11.781332
700.000000	1800.000000	11.763954
701.000000	1799.000000	11.751611
702.000000	1798.000000	11.731270
703.000000	1797.000000	11.714188
704.000000	1796.000000	11.691774
705.000000	1795.000000	11.682097
706.000000	1794.000000	11.665607
707.000000	1793.000000	11.648722
708.000000	1792.000000	11.638354
709.000000	1791.000000	11.605770
710.000000	1790.000000	11.573975
711.000000	1789.000000	11.554326
712.000000	1788.000000	11.544451
713.000000	1787.000000	11.516211
714.000000	1786.000000	11.484318
715.000000	1785.000000	11.455880
716.000000	1784.000000	11.440477
717.000000	1783.000000	11.397722
718.000000	1782.000000	11.381133
719.000000	1781.000000	11.338576
720.000000	1780.000000	11.305003
721.000000	1779.000000	11.266099
722.000000	1778.000000	11.246252
723.000000	1777.000000	11.197079
724.000000	1776.000000	11.166864
725.000000	1775.000000	11.096857
726.000000	1774.000000	11.031983
727.000000	1773.000000	10.998411
728.000000	1772.000000	10.960198
729.000000	1771.000000	10.915469
730.000000	1770.000000	10.872121
731.000000	1769.000000	10.824133
732.000000	1768.000000	10.766468
733.000000	1767.000000	10.729736
734.000000	1766.000000	10.699916
735.000000	1765.000000	10.679872
736.000000	1764.000000	10.675132
737.000000	1763.000000	10.669405
738.000000	1762.000000	10.665357
739.000000	1761.000000	10.695868
740.000000	1760.000000	10.725194
741.000000	1759.000000	10.742770
742.000000	1758.000000	10.773873
743.000000	1757.000000	10.786611
744.000000	1756.000000	10.804384
745.000000	1755.000000	10.814357
746.000000	1754.000000	10.812185
747.000000	1753.000000	10.834994
748.000000	1752.000000	10.824231
749.000000	1751.000000	10.797769
750.000000	1750.000000	10.793325
751.000000	1749.000000	10.770319
752.000000	1748.000000	10.732303
753.000000	1747.000000	10.691128
754.000000	1746.000000	10.662197
755.000000	1745.000000	10.629020
756.000000	1744.000000	10.564542
757.000000	1743.000000	10.490880
758.000000	1742.000000	10.418602
759.000000	1741.000000	10.346323
760.000000	1740.000000	10.261405
761.000000	1739.000000	10.193669
762.000000	1738.000000	10.117638
763.000000	1737.000000	10.057801
764.000000	1736.000000	10.008529
765.000000	1735.000000	9.990360
766.000000	1734.000000	9.986608
767.000000	1733.000000	9.987398
768.000000	1732.000000	10.008825
769.000000	1731.000000	10.013367
770.000000	1730.000000	10.078141
771.000000	1729.000000	10.119020
772.000000	1728.000000	10.154863
773.000000	1727.000000	10.206999
774.000000	1726.000000	10.226352
775.000000	1725.000000	10.252519
776.000000	1724.000000	10.274736
777.000000	1723.000000	10.292706
778.000000	1722.000000	10.310085
779.000000	1721.000000	10.308505
780.000000	1720.000000	10.293990
781.000000	1719.000000	10.336350
782.000000	1718.000000	10.350470
783.000000	1717.000000	10.369034
784.000000	1716.000000	10.402606
785.000000	1715.000000	10.399150
786.000000	1714.000000	10.462838
787.000000	1713.000000	10.467281
788.000000	1712.000000	10.475872
789.000000	1711.000000	10.497200
790.000000	1710.000000	10.527415
791.000000	1709.000000	10.534722
792.000000	1708.000000	10.497694
793.000000	1707.000000	10.537289
794.000000	1706.000000	10.514776
795.000000	1705.000000	10.497792
796.000000	1704.000000	10.494336
797.000000	1703.000000	10.472613
798.000000	1702.000000	10.425612
799.000000	1701.000000	10.374267
800.000000	1700.000000	10.330524
801.000000	1699.000000	10.275130
802.000000	1698.000000	10.224081
803.000000	1697.000000	10.186263
804.000000	1696.000000	10.183597
805.000000	1695.000000	10.162763
806.000000	1694.000000	10.195545
807.000000	1693.000000	10.241361
808.000000	1692.000000	10.291620
809.000000	1691.000000	10.342176
810.000000	1690.000000	10.395891
811.000000	1689.000000	10.426304
812.000000	1688.000000	10.450002
813.000000	1687.000000	10.452964
814.000000	1686.000000	10.475378
815.000000	1685.000000	10.468367
816.000000	1684.000000	10.520305
817.000000	1683.000000	10.596238
818.000000	1682.000000	10.706532
819.000000	1681.000000	10.863432
820.000000	1680.000000	11.044721
821.000000	1679.000000	11.237859
822.000000	1678.000000	11.417174
823.000000	1677.000000	11.604091
824.000000	1676.000000	11.764151
825.000000	1675.000000	11.924310
826.000000	1674.000000	12.052180
827.000000	1673.000000	12.178964
828.000000	1672.000000	12.222311
829.000000	1671.000000	12.308117
830.000000	1670.000000	12.379508
831.000000	1669.000000	12.443591
832.000000	1668.000000	12.511624
833.000000	1667.000000	12.594073
834.000000	1666.000000	12.627447
835.000000	1665.000000	12.667141
836.000000	1664.000000	12.678200
837.000000	1663.000000	12.698936
838.000000	1662.000000	12.732113
839.000000	1661.000000	12.759070
840.000000	1660.000000	12.765192
841.000000	1659.000000	12.765389
842.000000	1658.000000	12.778127
843.000000	1657.000000	12.772498
844.000000	1656.000000	12.773486
845.000000	1655.000000	12.792938
846.000000	1654.000000	12.760057
847.000000	1653.000000	12.749985
848.000000	1652.000000	12.748702
849.000000	1651.000000	12.717499
850.000000	1650.000000	12.715623
851.000000	1649.000000	12.697554
852.000000	1648.000000	12.677410
853.000000	1647.000000	12.664278
854.000000	1646.000000	12.651935
855.000000	1645.000000	12.608983
856.000000	1644.000000	12.585482
857.000000	1643.000000	12.563759
858.000000	1642.000000	12.536309
859.000000	1641.000000	12.535618
860.000000	1640.000000	12.506884
861.000000	1639.000000	12.475583
862.000000	1638.000000	12.450009
863.000000	1637.000000	12.422954
864.000000	1636.000000	12.389875
865.000000	1635.000000	12.367659
866.000000	1634.000000	12.335963
867.000000	1633.000000	12.300514
868.000000	1632.000000	12.247984
869.000000	1631.000000	12.234358
870.000000	1630.000000	12.214511
871.000000	1629.000000	12.177088
872.000000	1628.000000	12.130185
873.000000	1627.000000	12.103920
874.000000	1626.000000	12.079630
875.000000	1625.000000	12.040726
876.000000	1624.000000	12.001822
877.000000	1623.000000	11.969039
878.000000	1622.000000	11.935072
879.000000	1621.000000	11.907129
880.000000	1620.000000	11.895477
881.000000	1619.000000	11.843737
882.000000	1618.000000	11.813917
883.000000	1617.000000	11.791009
884.000000	1616.000000	11.763954
885.000000	1615.000000	11.721692
886.000000	1614.000000	11.699278
887.000000	1613.000000	11.678641
888.000000	1612.000000	11.659386
889.000000	1611.000000	11.638848
890.000000	1610.000000	11.599352
891.000000	1609.000000	11.578221
892.000000	1608.000000	11.561237
893.000000	1607.000000	11.529146
894.000000	1606.000000	11.512459
895.000000	1605.000000	11.484120
896.000000	1604.000000	11.445315
897.000000	1603.000000	11.422407
898.000000	1602.000000	11.393476
899.000000	1601.000000	11.368988
900.000000	1600.000000	11.345389
901.000000	1599.000000	11.314878
902.000000	1598.000000	11.285255
903.000000	1597.000000	11.277553
904.000000	1596.000000	11.263433
905.000000	1595.000000	11.235193
906.000000	1594.000000	11.217321
907.000000	1593.000000	11.194216
908.000000	1592.000000	11.176442
909.000000	1591.000000	11.155213
910.000000	1590.000000	11.142376
911.000000	1589.000000	11.127368
912.000000	1588.000000	11.124307
913.000000	1587.000000	11.118382
914.000000	1586.000000	11.110285
915.000000	1585.000000	11.103966
916.000000	1584.000000	11.082045
917.000000	1583.000000	11.079182
918.000000	1582.000000	11.080959
919.000000	1581.000000	11.078589
920.000000	1580.000000	11.070888
921.000000	1579.000000	11.070196
922.000000	1578.000000	11.066444
923.000000	1577.000000	11.050942
924.000000	1576.000000	11.057064
925.000000	1575.000000	11.067432
926.000000	1574.000000	11.081947
927.000000	1573.000000	11.079281
928.000000	1572.000000	11.074047
929.000000	1571.000000	11.088167
930.000000	1570.000000	11.108311
931.000000	1569.000000	11.127368
932.000000	1568.000000	11.137637
933.000000	1567.000000	11.148795
934.000000	1566.000000	11.163606
935.000000	1565.000000	11.167950
936.000000	1564.000000	11.185526
937.000000	1563.000000	11.209323
938.000000	1562.000000	11.222159
939.000000	1561.000000	11.237464
940.000000	1560.000000	11.253164
941.000000	1559.000000	11.254942
942.000000	1558.000000	11.255040
943.000000	1557.000000	11.269457
944.000000	1556.000000	11.277455
945.000000	1555.000000	11.281108
946.000000	1554.000000	11.288119
947.000000	1553.000000	11.297302
948.000000	1552.000000	11.294932
949.000000	1551.000000	11.289896
950.000000	1550.000000	11.286934
951.000000	1549.000000	11.305892
952.000000	1548.000000	11.318926
953.000000	1547.000000	11.308361
954.000000	1546.000000	11.334132
955.000000	1545.000000	11.345586
956.000000	1544.000000	11.334330
957.000000	1543.000000	11.335317
958.000000	1542.000000	11.347956
959.000000	1541.000000	11.347561
960.000000	1540.000000	11.350819
961.000000	1539.000000	11.363458
962.000000	1538.000000	11.370272
963.000000	1537.000000	11.374320
964.000000	1536.000000	11.368198
965.000000	1535.000000	11.376097
966.000000	1534.000000	11.396043
967.000000	1533.000000	11.399993
968.000000	1532.000000	11.381331
969.000000	1531.000000	11.382614
970.000000	1530.000000	11.391205
971.000000	1529.000000	11.383207
972.000000	1528.000000	11.388144
973.000000	1527.000000	11.384885
974.000000	1526.000000	11.357435
975.000000	1525.000000	11.361879
976.000000	1524.000000	11.364643
977.000000	1523.000000	11.364742
978.000000	1522.000000	11.360694
979.000000	1521.000000	11.348153
980.000000	1520.000000	11.340649
981.000000	1519.000000	11.328800
982.000000	1518.000000	11.318827
983.000000	1517.000000	11.313791
984.000000	1516.000000	11.307669
985.000000	1515.000000	11.303127
986.000000	1514.000000	11.290587
987.000000	1513.000000	11.278047
988.000000	1512.000000	11.272518
989.000000	1511.000000	11.255139
990.000000	1510.000000	11.239044
991.000000	1509.000000	11.242105
992.000000	1508.000000	11.234008
993.000000	1507.000000	11.223641
994.000000	1506.000000	11.202115
995.000000	1505.000000	11.194314
996.000000	1504.000000	11.202115
997.000000	1503.000000	11.183354
998.000000	1502.000000	11.184736
999.000000	1501.000000	11.175850
1000.000000	1500.000000	11.174369
1001.000000	1499.000000	11.162618
1002.000000	1498.000000	11.150868
1003.000000	1497.000000	11.158965
1004.000000	1496.000000	11.161828
1005.000000	1495.000000	11.155213
1006.000000	1494.000000	11.154522
1007.000000	1493.000000	11.166074
1008.000000	1492.000000	11.157977
1009.000000	1491.000000	11.171999
1010.000000	1490.000000	11.159557
1011.000000	1489.000000	11.182070
1012.000000	1488.000000	11.203102
1013.000000	1487.000000	11.194907
1014.000000	1486.000000	11.210705
1015.000000	1485.000000	11.194314
1016.000000	1484.000000	11.184539
1017.000000	1483.000000	11.216136
1018.000000	1482.000000	11.231540
1019.000000	1481.000000	11.253559
1020.000000	1480.000000	11.244475
1021.000000	1479.000000	11.247832
1022.000000	1478.000000	11.257805
1023.000000	1477.000000	11.253065
1024.000000	1476.000000	11.266692
1025.000000	1475.000000	11.292760
1026.000000	1474.000000	11.294241
1027.000000	1473.000000	11.318531
1028.000000	1472.000000	11.329689
1029.000000	1471.000000	11.354769
1030.000000	1470.000000	11.363162
1031.000000	1469.000000	11.352202
1032.000000	1468.000000	11.374912
1033.000000	1467.000000	11.383898
1034.000000	1466.000000	11.393673
1035.000000	1465.000000	11.413816
1036.000000	1464.000000	11.420926
1037.000000	1463.000000	11.451634
1038.000000	1462.000000	11.455782
1039.000000	1461.000000	11.495673
1040.000000	1460.000000	11.532207
1041.000000	1459.000000	11.529344
1042.000000	1458.000000	11.555609
1043.000000	1457.000000	11.594612
1044.000000	1456.000000	11.627592
1045.000000	1455.000000	11.674000
1046.000000	1454.000000	11.692465
1047.000000	1453.000000	11.727715
1048.000000	1452.000000	11.766817
1049.000000	1451.000000	11.802660
1050.000000	1450.000000	11.821322
1051.000000	1449.000000	11.859634
1052.000000	1448.000000	11.899032
1053.000000	1447.000000	11.943564
1054.000000	1446.000000	12.007746
1055.000000	1445.000000	12.034999
1056.000000	1444.000000	12.067287
1057.000000	1443.000000	12.098786
1058.000000	1442.000000	12.143022
1059.000000	1441.000000	12.211943
1060.000000	1440.000000	12.250551
1061.000000	1439.000000	12.287283
1062.000000	1438.000000	12.308117
1063.000000	1437.000000	12.371213
1064.000000	1436.000000	12.385827
1065.000000	1435.000000	12.437765
1066.000000	1434.000000	12.504020
1067.000000	1433.000000	12.539271
1068.000000	1432.000000	12.577978
1069.000000	1431.000000	12.619647
1070.000000	1430.000000	12.671486
1071.000000	1429.000000	12.719474
1072.000000	1428.000000	12.804194
1073.000000	1427.000000	12.871635
1074.000000	1426.000000	12.925251
1075.000000	1425.000000	13.010959
1076.000000	1424.000000	13.091532
1077.000000	1423.000000	13.144359
1078.000000	1422.000000	13.189582
1079.000000	1421.000000	13.286546
1080.000000	1420.000000	13.353394
1081.000000	1419.000000	13.439398
1082.000000	1418.000000	13.502395
1083.000000	1417.000000	13.542484
1084.000000	1416.000000	13.642213
1085.000000	1415.000000	13.684079
1086.000000	1414.000000	13.740066
1087.000000	1413.000000	13.782228
1088.000000	1412.000000	13.822317
1089.000000	1411.000000	13.935771
1090.000000	1410.000000	13.993831
1091.000000	1409.000000	14.081316
1092.000000	1408.000000	14.170578
1093.000000	1407.000000	14.244437
1094.000000	1406.000000	14.357693
1095.000000	1405.000000	14.470554
1096.000000	1404.000000	14.554978
1097.000000	1403.000000	14.638316
1098.000000	1402.000000	14.753844
1099.000000	1401.000000	14.872136
1100.000000	1400.000000	14.914792
1101.000000	1399.000000	14.932664
1102.000000	1398.000000	14.968902
1103.000000	1397.000000	15.008991
1104.000000	1396.000000	15.051746
1105.000000	1395.000000	15.008103
1106.000000	1394.000000	14.986775
1107.000000	1393.000000	14.946291
1108.000000	1392.000000	14.928616
1109.000000	1391.000000	14.899191
1110.000000	1390.000000	14.912916
1111.000000	1389.000000	14.904128
1112.000000	1388.000000	14.947377
1113.000000	1387.000000	14.974234
1114.000000	1386.000000	15.038811
1115.000000	1385.000000	15.147131
1116.000000	1384.000000	15.255253
1117.000000	1383.000000	15.347181
1118.000000	1382.000000	15.473767
1119.000000	1381.000000	15.560067
1120.000000	1380.000000	15.660586
1121.000000	1379.000000	15.813536
1122.000000	1378.000000	15.944073
1123.000000	1377.000000	16.098899
1124.000000	1376.000000	16.291840
1125.000000	1375.000000	16.498111
1126.000000	1374.000000	16.747729
1127.000000	1373.000000	17.005444
1128.000000	1372.000000	17.232747
1129.000000	1371.000000	17.456001
1130.000000	1370.000000	17.650028
1131.000000	1369.000000	17.842870
1132.000000	1368.000000	17.989205
1133.000000	1367.000000	18.090514
1134.000000	1366.000000	18.212064
1135.000000	1365.000000	18.326407
1136.000000	1364.000000	18.383973
1137.000000	1363.000000	18.470372
1138.000000	1362.000000	18.537022
1139.000000	1361.000000	18.556672
1140.000000	1360.000000	18.579185
1141.000000	1359.000000	18.610190
1142.000000	1358.000000	18.637738
1143.000000	1357.000000	18.708931
1144.000000	1356.000000	18.832259
1145.000000	1355.000000	19.001699
1146.000000	1354.000000	19.205699
1147.000000	1353.000000	19.401602
1148.000000	1352.000000	19.654973
1149.000000	1351.000000	19.871019
1150.000000	1350.000000	20.093582
1151.000000	1349.000000	20.288399
1152.000000	1348.000000	20.451026
1153.000000	1347.000000	20.586005
1154.000000	1346.000000	20.710913
1155.000000	1345.000000	20.860803
1156.000000	1344.000000	21.008125
1157.000000	1343.000000	21.117333
1158.000000	1342.000000	21.225948
1159.000000	1341.000000	21.329726
1160.000000	1340.000000	21.433503
1161.000000	1339.000000	21.525332
1162.000000	1338.000000	21.629011
1163.000000	1337.000000	21.729332
1164.000000	1336.000000	21.801018
1165.000000	1335.000000	21.882776
1166.000000	1334.000000	21.956931
1167.000000	1333.000000	22.039874
1168.000000	1332.000000	22.112350
1169.000000	1331.000000	22.176236
1170.000000	1330.000000	22.243380
1171.000000	1329.000000	22.294627
1172.000000	1328.000000	22.348441
1173.000000	1327.000000	22.414598
1174.000000	1326.000000	22.449947
1175.000000	1325.000000	22.489641
1176.000000	1324.000000	22.541579
1177.000000	1323.000000	22.578508
1178.000000	1322.000000	22.619684
1179.000000	1321.000000	22.661550
1180.000000	1320.000000	22.711513
1181.000000	1319.000000	22.746764
1182.000000	1318.000000	22.764537
1183.000000	1317.000000	22.790309
1184.000000	1316.000000	22.834644
1185.000000	1315.000000	22.865253
1186.000000	1314.000000	22.875819
1187.000000	1313.000000	22.902874
1188.000000	1312.000000	22.925387
1189.000000	1311.000000	22.926572
1190.000000	1310.000000	22.936643
1191.000000	1309.000000	22.951455
1192.000000	1308.000000	22.970808
1193.000000	1307.000000	22.986903
1194.000000	1306.000000	22.991741
1195.000000	1305.000000	22.989964
1196.000000	1304.000000	22.996481
1197.000000	1303.000000	22.989569
1198.000000	1302.000000	22.977522
1199.000000	1301.000000	22.979991
1200.000000	1300.000000	22.974758
1201.000000	1299.000000	22.959552
1202.000000	1298.000000	22.952343
1203.000000	1297.000000	22.952936
1204.000000	1296.000000	22.946024
1205.000000	1295.000000	22.929534
1206.000000	1294.000000	22.910477
1207.000000	1293.000000	22.892111
1208.000000	1292.000000	22.880953
1209.000000	1291.000000	22.882731
1210.000000	1290.000000	22.879077
1211.000000	1289.000000	22.851232
1212.000000	1288.000000	22.831583
1213.000000	1287.000000	22.808378
1214.000000	1286.000000	22.779348
1215.000000	1285.000000	22.752886
1216.000000	1284.000000	22.729287
1217.000000	1283.000000	22.715364
1218.000000	1282.000000	22.693443
1219.000000	1281.000000	22.675275
1220.000000	1280.000000	22.654144
1221.000000	1279.000000	22.639629
1222.000000	1278.000000	22.622350
1223.000000	1277.000000	22.597862
1224.000000	1276.000000	22.594504
1225.000000	1275.000000	22.579200
1226.000000	1274.000000	22.557871
1227.000000	1273.000000	22.542172
1228.000000	1272.000000	22.527262
1229.000000	1271.000000	22.514721
1230.000000	1270.000000	22.491320
1231.000000	1269.000000	22.479569
1232.000000	1268.000000	22.466832
1233.000000	1267.000000	22.447577
1234.000000	1266.000000	22.426249
1235.000000	1265.000000	22.414499
1236.000000	1264.000000	22.386358
1237.000000	1263.000000	22.348046
1238.000000	1262.000000	22.326323
1239.000000	1261.000000	22.317436
1240.000000	1260.000000	22.288505
1241.000000	1259.000000	22.251674
1242.000000	1258.000000	22.219386
1243.000000	1257.000000	22.205463
1244.000000	1256.000000	22.171891
1245.000000	1255.000000	22.136344
1246.000000	1254.000000	22.110474
1247.000000	1253.000000	22.082925
1248.000000	1252.000000	22.041158
1249.000000	1251.000000	22.004722
1250.000000	1250.000000	21.961473
1251.000000	1249.000000	21.929382
1252.000000	1248.000000	21.890873
1253.000000	1247.000000	21.846933
1254.000000	1246.000000	21.807239
1255.000000	1245.000000	21.762411
1256.000000	1244.000000	21.709979
1257.000000	1243.000000	21.652413
1258.000000	1242.000000	21.599586
1259.000000	1241.000000	21.548438
1260.000000	1240.000000	21.483762
1261.000000	1239.000000	21.435971
1262.000000	1238.000000	21.380775
1263.000000	1237.000000	21.311261
1264.000000	1236.000000	21.256756
1265.000000	1235.000000	21.200671
1266.000000	1234.000000	21.131453
1267.000000	1233.000000	21.074479
1268.000000	1232.000000	21.006644
1269.000000	1231.000000	20.934168
1270.000000	1230.000000	20.843918
1271.000000	1229.000000	20.785068
1272.000000	1228.000000	20.712394
1273.000000	1227.000000	20.646040
1274.000000	1226.000000	20.574551
1275.000000	1225.000000	20.479365
1276.000000	1224.000000	20.419824
1277.000000	1223.000000	20.364035
1278.000000	1222.000000	20.279216
1279.000000	1221.000000	20.200124
1280.000000	1220.000000	20.132387
1281.000000	1219.000000	20.066428
1282.000000	1218.000000	19.992372
1283.000000	1217.000000	19.942508
1284.000000	1216.000000	19.881683
1285.000000	1215.000000	19.816415
1286.000000	1214.000000	19.749863
1287.000000	1213.000000	19.721031
1288.000000	1212.000000	19.667019
1289.000000	1211.000000	19.623968
1290.000000	1210.000000	19.580028
1291.000000	1209.000000	19.533619
1292.000000	1208.000000	19.505577
1293.000000	1207.000000	19.484446
1294.000000	1206.000000	19.469832
1295.000000	1205.000000	19.445739
1296.000000	1204.000000	19.430336
1297.000000	1203.000000	19.435075
1298.000000	1202.000000	19.421350
1299.000000	1201.000000	19.421054
1300.000000	1200.000000	19.419376
1301.000000	1199.000000	19.391925
1302.000000	1198.000000	19.350849
1303.000000	1197.000000	19.297529
1304.000000	1196.000000	19.212611
1305.000000	1195.000000	19.120979
1306.000000	1194.000000	19.002292
1307.000000	1193.000000	18.834036
1308.000000	1192.000000	18.651069
1309.000000	1191.000000	18.467903
1310.000000	1190.000000	18.283849
1311.000000	1189.000000	18.148376
1312.000000	1188.000000	18.037391
1313.000000	1187.000000	18.004905
1314.000000	1186.000000	18.010533
1315.000000	1185.000000	18.048746
1316.000000	1184.000000	18.157658
1317.000000	1183.000000	18.313768
1318.000000	1182.000000	18.516780
1319.000000	1181.000000	18.725717
1320.000000	1180.000000	18.926162
1321.000000	1179.000000	19.141616
1322.000000	1178.000000	19.313920
1323.000000	1177.000000	19.480299
1324.000000	1176.000000	19.605306
1325.000000	1175.000000	19.738113
1326.000000	1174.000000	19.873685
1327.000000	1173.000000	19.997507
1328.000000	1172.000000	20.149371
1329.000000	1171.000000	20.310221
1330.000000	1170.000000	20.483413
1331.000000	1169.000000	20.652063
1332.000000	1168.000000	20.790795
1333.000000	1167.000000	20.959248
1334.000000	1166.000000	21.118715
1335.000000	1165.000000	21.296154
1336.000000	1164.000000	21.455325
1337.000000	1163.000000	21.634244
1338.000000	1162.000000	21.789762
1339.000000	1161.000000	21.970557
1340.000000	1160.000000	22.129827
1341.000000	1159.000000	22.252069
1342.000000	1158.000000	22.386753
1343.000000	1157.000000	22.537037
1344.000000	1156.000000	22.640222
1345.000000	1155.000000	22.702429
1346.000000	1154.000000	22.766611
1347.000000	1153.000000	22.797813
1348.000000	1152.000000	22.758711
1349.000000	1151.000000	22.773424
1350.000000	1150.000000	22.787840
1351.000000	1149.000000	22.753281
1352.000000	1148.000000	22.764537
1353.000000	1147.000000	22.782014
1354.000000	1146.000000	22.837902
1355.000000	1145.000000	22.903763
1356.000000	1144.000000	22.998357
1357.000000	1143.000000	23.114773
1358.000000	1142.000000	23.272364
1359.000000	1141.000000	23.408331
1360.000000	1140.000000	23.547754
1361.000000	1139.000000	23.702976
1362.000000	1138.000000	23.857901
1363.000000	1137.000000	24.017961
1364.000000	1136.000000	24.175947
1365.000000	1135.000000	24.325836
1366.000000	1134.000000	24.480860
1367.000000	1133.000000	24.552744
1368.000000	1132.000000	24.664914
1369.000000	1131.000000	24.796043
1370.000000	1130.000000	24.884318
1371.000000	1129.000000	24.975752
1372.000000	1128.000000	25.038651
1373.000000	1127.000000	25.094736
1374.000000	1126.000000	25.131665
1375.000000	1125.000000	25.148056
1376.000000	1124.000000	25.182122
1377.000000	1123.000000	25.209078
1378.000000	1122.000000	25.227642
1379.000000	1121.000000	25.250451
1380.000000	1120.000000	25.256968
1381.000000	1119.000000	25.277013
1382.000000	1118.000000	25.274544
1383.000000	1117.000000	25.289553
1384.000000	1116.000000	25.272372
1385.000000	1115.000000	25.283924
1386.000000	1114.000000	25.278296
1387.000000	1113.000000	25.282246
1388.000000	1112.000000	25.271878
1389.000000	1111.000000	25.270002
1390.000000	1110.000000	25.266645
1391.000000	1109.000000	25.244922
1392.000000	1108.000000	25.253216
1393.000000	1107.000000	25.265657
1394.000000	1106.000000	25.260819
1395.000000	1105.000000	25.250254
1396.000000	1104.000000	25.247686
1397.000000	1103.000000	25.257758
1398.000000	1102.000000	25.250254
1399.000000	1101.000000	25.244329
1400.000000	1100.000000	25.235640
1401.000000	1099.000000	25.219446
1402.000000	1098.000000	25.212337
1403.000000	1097.000000	25.207795
1404.000000	1096.000000	25.200587
1405.000000	1095.000000	25.201772
1406.000000	1094.000000	25.183011
1407.000000	1093.000000	25.159313
1408.000000	1092.000000	25.145193
1409.000000	1091.000000	25.130283
1410.000000	1090.000000	25.119619
1411.000000	1089.000000	25.120014
1412.000000	1088.000000	25.112312
1413.000000	1087.000000	25.103524
1414.000000	1086.000000	25.083973
1415.000000	1085.000000	25.065410
1416.000000	1084.000000	25.063830
1417.000000	1083.000000	25.056128
1418.000000	1082.000000	25.036577
1419.000000	1081.000000	25.026111
1420.000000	1080.000000	24.999253
1421.000000	1079.000000	24.980196
1422.000000	1078.000000	24.992736
1423.000000	1077.000000	24.972395
1424.000000	1076.000000	24.952943
1425.000000	1075.000000	24.962620
1426.000000	1074.000000	24.944451
1427.000000	1073.000000	24.945735
1428.000000	1072.000000	24.933590
1429.000000	1071.000000	24.916211
1430.000000	1070.000000	24.886095
1431.000000	1069.000000	24.874839
1432.000000	1068.000000	24.867137
1433.000000	1067.000000	24.852918
1434.000000	1066.000000	24.839094
1435.000000	1065.000000	24.837120
1436.000000	1064.000000	24.839884
1437.000000	1063.000000	24.847882
1438.000000	1062.000000	24.834750
1439.000000	1061.000000	24.814113
1440.000000	1060.000000	24.797722
1441.000000	1059.000000	24.797623
1442.000000	1058.000000	24.780541
1443.000000	1057.000000	24.768297
1444.000000	1056.000000	24.758028
1445.000000	1055.000000	24.740452
1446.000000	1054.000000	24.736206
1447.000000	1053.000000	24.720506
1448.000000	1052.000000	24.709447
1449.000000	1051.000000	24.699573
1450.000000	1050.000000	24.692858
1451.000000	1049.000000	24.688217
1452.000000	1048.000000	24.686736
1453.000000	1047.000000	24.685946
1454.000000	1046.000000	24.678343
1455.000000	1045.000000	24.661557
1456.000000	1044.000000	24.656324
1457.000000	1043.000000	24.650202
1458.000000	1042.000000	24.655139
1459.000000	1041.000000	24.655139
1460.000000	1040.000000	24.646845
1461.000000	1039.000000	24.645857
1462.000000	1038.000000	24.625319
1463.000000	1037.000000	24.615248
1464.000000	1036.000000	24.604189
1465.000000	1035.000000	24.606558
1466.000000	1034.000000	24.587501
1467.000000	1033.000000	24.552251
1468.000000	1032.000000	24.544154
1469.000000	1031.000000	24.536254
1470.000000	1030.000000	24.515420
1471.000000	1029.000000	24.488365
1472.000000	1028.000000	24.473652
1473.000000	1027.000000	24.467432
1474.000000	1026.000000	24.461803
1475.000000	1025.000000	24.441364
1476.000000	1024.000000	24.412038
1477.000000	1023.000000	24.390907
1478.000000	1022.000000	24.394758
1479.000000	1021.000000	24.390315
1480.000000	1020.000000	24.386859
1481.000000	1019.000000	24.370468
1482.000000	1018.000000	24.347362
1483.000000	1017.000000	24.354274
1484.000000	1016.000000	24.357829
1485.000000	1015.000000	24.341240
1486.000000	1014.000000	24.333143
1487.000000	1013.000000	24.355656
1488.000000	1012.000000	24.374615
1489.000000	1011.000000	24.387945
1490.000000	1010.000000	24.399794
1491.000000	1009.000000	24.419246
1492.000000	1008.000000	24.464173
1493.000000	1007.000000	24.466247
1494.000000	1006.000000	24.492907
1495.000000	1005.000000	24.533095
1496.000000	1004.000000	24.541389
1497.000000	1003.000000	24.575850
1498.000000	1002.000000	24.613075
1499.000000	1001.000000	24.630849
1500.000000	1000.000000	24.655337
1501.000000	999.000000	24.679035
1502.000000	998.000000	24.724554
1503.000000	997.000000	24.765927
1504.000000	996.000000	24.785675
1505.000000	995.000000	24.809768
1506.000000	994.000000	24.840181
1507.000000	993.000000	24.867137
1508.000000	992.000000	24.904461
1509.000000	991.000000	24.929541
1510.000000	990.000000	24.939613
1511.000000	989.000000	24.975061
1512.000000	988.000000	25.000635
1513.000000	987.000000	25.004782
1514.000000	986.000000	25.028678
1515.000000	985.000000	25.049809
1516.000000	984.000000	25.094143
1517.000000	983.000000	25.114484
1518.000000	982.000000	25.119816
1519.000000	981.000000	25.127617
1520.000000	980.000000	25.148352
1521.000000	979.000000	25.158227
1522.000000	978.000000	25.165139
1523.000000	977.000000	25.187355
1524.000000	976.000000	25.218360
1525.000000	975.000000	25.218953
1526.000000	974.000000	25.252031
1527.000000	973.000000	25.251142
1528.000000	972.000000	25.253611
1529.000000	971.000000	25.268422
1530.000000	970.000000	25.288269
1531.000000	969.000000	25.309696
1532.000000	968.000000	25.311770
1533.000000	967.000000	25.347711
1534.000000	966.000000	25.364695
1535.000000	965.000000	25.362029
1536.000000	964.000000	25.384542
1537.000000	963.000000	25.427889
1538.000000	962.000000	25.438356
1539.000000	961.000000	25.467583
1540.000000	960.000000	25.484863
1541.000000	959.000000	25.497897
1542.000000	958.000000	25.533148
1543.000000	957.000000	25.580149
1544.000000	956.000000	25.592491
1545.000000	955.000000	25.613326
1546.000000	954.000000	25.656476
1547.000000	953.000000	25.696565
1548.000000	952.000000	25.719177
1549.000000	951.000000	25.753736
1550.000000	950.000000	25.762425
1551.000000	949.000000	25.788987
1552.000000	948.000000	25.821176
1553.000000	947.000000	25.847244
1554.000000	946.000000	25.878249
1555.000000	945.000000	25.909254
1556.000000	944.000000	25.935124
1557.000000	943.000000	25.957637
1558.000000	942.000000	26.004737
1559.000000	941.000000	26.029225
1560.000000	940.000000	26.057366
1561.000000	939.000000	26.082249
1562.000000	938.000000	26.155317
1563.000000	937.000000	26.173091
1564.000000	936.000000	26.184446
1565.000000	935.000000	26.216438
1566.000000	934.000000	26.235989
1567.000000	933.000000	26.286446
1568.000000	932.000000	26.286249
1569.000000	931.000000	26.306096
1570.000000	930.000000	26.352800
1571.000000	929.000000	26.347567
1572.000000	928.000000	26.358429
1573.000000	927.000000	26.364945
1574.000000	926.000000	26.390026
1575.000000	925.000000	26.402763
1576.000000	924.000000	26.417673
1577.000000	923.000000	26.424487
1578.000000	922.000000	26.463489
1579.000000	921.000000	26.464773
1580.000000	920.000000	26.462897
1581.000000	919.000000	26.477412
1582.000000	918.000000	26.471784
1583.000000	917.000000	26.486792
1584.000000	916.000000	26.502788
1585.000000	915.000000	26.495580
1586.000000	914.000000	26.507429
1587.000000	913.000000	26.531621
1588.000000	912.000000	26.515822
1589.000000	911.000000	26.524215
1590.000000	910.000000	26.513650
1591.000000	909.000000	26.576845
1592.000000	908.000000	26.565588
1593.000000	907.000000	26.570723
1594.000000	906.000000	26.580597
1595.000000	905.000000	26.602814
1596.000000	904.000000	26.661367
1597.000000	903.000000	26.669069
1598.000000	902.000000	26.709454
1599.000000	901.000000	26.710738
1600.000000	900.000000	26.741940
1601.000000	899.000000	26.774821
1602.000000	898.000000	26.801383
1603.000000	897.000000	26.854900
1604.000000	896.000000	26.859739
1605.000000	895.000000	26.863096
1606.000000	894.000000	26.902099
1607.000000	893.000000	26.940312
1608.000000	892.000000	26.950383
1609.000000	891.000000	26.951469
1610.000000	890.000000	26.901210
1611.000000	889.000000	26.900716
1612.000000	888.000000	26.901803
1613.000000	887.000000	26.890842
1614.000000	886.000000	26.899137
1615.000000	885.000000	26.872674
1616.000000	884.000000	26.839694
1617.000000	883.000000	26.817971
1618.000000	882.000000	26.740163
1619.000000	881.000000	26.659689
1620.000000	880.000000	26.611207
1621.000000	879.000000	26.589483
1622.000000	878.000000	26.518291
1623.000000	877.000000	26.421327
1624.000000	876.000000	26.378276
1625.000000	875.000000	26.278152
1626.000000	874.000000	26.220289
1627.000000	873.000000	26.136359
1628.000000	872.000000	26.027349
1629.000000	871.000000	25.951515
1630.000000	870.000000	25.853860
1631.000000	869.000000	25.781186
1632.000000	868.000000	25.705945
1633.000000	867.000000	25.656081
1634.000000	866.000000	25.587061
1635.000000	865.000000	25.519324
1636.000000	864.000000	25.412190
1637.000000	863.000000	25.306832
1638.000000	862.000000	25.194366
1639.000000	861.000000	25.124556
1640.000000	860.000000	25.033812
1641.000000	859.000000	24.963212
1642.000000	858.000000	24.841267
1643.000000	857.000000	24.693000
1644.000000	856.000000	24.771500
1645.000000	855.000000	25.059300
1646.000000	854.000000	24.785400
1647.000000	853.000000	24.989200
1648.000000	852.000000	24.943700
1649.000000	851.000000	24.830600
1650.000000	850.000000	24.898100
1651.000000	849.000000	25.063900
1652.000000	848.000000	25.207200
1653.000000	847.000000	25.028900
1654.000000	846.000000	25.105300
1655.000000	845.000000	25.018400
1656.000000	844.000000	25.064500
1657.000000	843.000000	25.139600
1658.000000	842.000000	25.179600
1659.000000	841.000000	25.171600
1660.000000	840.000000	25.153900
1661.000000	839.000000	25.084000
1662.000000	838.000000	25.158900
1663.000000	837.000000	24.995400
1664.000000	836.000000	24.989200
1665.000000	835.000000	24.909500
1666.000000	834.000000	24.850000
1667.000000	833.000000	24.989100
1668.000000	832.000000	24.863600
1669.000000	831.000000	24.798100
1670.000000	830.000000	24.858200
1671.000000	829.000000	24.813100
1672.000000	828.000000	24.875400
1673.000000	827.000000	24.769800
1674.000000	826.000000	24.702800
1675.000000	825.000000	24.614500
1676.000000	824.000000	24.661400
1677.000000	823.000000	24.613900
1678.000000	822.000000	24.479700
1679.000000	821.000000	24.468800
1680.000000	820.000000	24.402700
1681.000000	819.000000	24.394300
1682.000000	818.000000	24.380100
1683.000000	817.000000	24.361100
1684.000000	816.000000	24.314600
1685.000000	815.000000	24.244100
1686.000000	814.000000	24.298500
1687.000000	813.000000	24.232500
1688.000000	812.000000	24.157800
1689.000000	811.000000	24.107800
1690.000000	810.000000	24.138500
1691.000000	809.000000	24.145400
1692.000000	808.000000	24.075000
1693.000000	807.000000	23.976100
1694.000000	806.000000	23.936100
1695.000000	805.000000	23.927500
1696.000000	804.000000	23.884100
1697.000000	803.000000	23.831900
1698.000000	802.000000	23.869600
1699.000000	801.000000	23.880500
1700.000000	800.000000	23.808500
1701.000000	799.000000	23.728200
1702.000000	798.000000	23.706100
1703.000000	797.000000	23.696000
1704.000000	796.000000	23.602900
1705.000000	795.000000	23.570400
1706.000000	794.000000	23.511800
1707.000000	793.000000	23.470600
1708.000000	792.000000	23.443200
1709.000000	791.000000	23.410600
1710.000000	790.000000	23.361800
1711.000000	789.000000	23.287600
1712.000000	788.000000	23.228200
1713.000000	787.000000	23.194000
1714.000000	786.000000	23.166000
1715.000000	785.000000	23.127900
1716.000000	784.000000	23.034200
1717.000000	783.000000	22.978100
1718.000000	782.000000	22.916900
1719.000000	781.000000	22.876400
1720.000000	780.000000	22.819100
1721.000000	779.000000	22.777400
1722.000000	778.000000	22.698500
1723.000000	777.000000	22.658800
1724.000000	776.000000	22.656500
1725.000000	775.000000	22.603400
1726.000000	774.000000	22.501500
1727.000000	773.000000	22.482300
1728.000000	772.000000	22.442200
1729.000000	771.000000	22.381900
1730.000000	770.000000	22.355900
1731.000000	769.000000	22.322300
1732.000000	768.000000	22.305300
1733.000000	767.000000	22.261300
1734.000000	766.000000	22.234100
1735.000000	765.000000	22.219900
1736.000000	764.000000	22.188300
1737.000000	763.000000	22.141300
1738.000000	762.000000	22.139100
1739.000000	761.000000	22.106900
1740.000000	760.000000	22.100500
1741.000000	759.000000	22.080300
1742.000000	758.000000	22.083800
1743.000000	757.000000	22.107200
1744.000000	756.000000	22.075600
1745.000000	755.000000	22.078900
1746.000000	754.000000	22.046100
1747.000000	753.000000	22.019800
1748.000000	752.000000	22.031900
1749.000000	751.000000	22.041700
1750.000000	750.000000	22.045200
1751.000000	749.000000	22.036100
1752.000000	748.000000	21.999800
1753.000000	747.000000	22.006000
1754.000000	746.000000	22.035200
1755.000000	745.000000	22.026100
1756.000000	744.000000	22.038800
1757.000000	743.000000	22.048200
1758.000000	742.000000	22.046900
1759.000000	741.000000	22.060900
1760.000000	740.000000	22.032600
1761.000000	739.000000	21.991700
1762.000000	738.000000	21.974900
1763.000000	737.000000	21.961200
1764.000000	736.000000	21.946100
1765.000000	735.000000	21.907700
1766.000000	734.000000	21.863100
1767.000000	733.000000	21.838200
1768.000000	732.000000	21.825500
1769.000000	731.000000	21.776500
1770.000000	730.000000	21.699300
1771.000000	729.000000	21.642900
1772.000000	728.000000	21.591000
1773.000000	727.000000	21.531100
1774.000000	726.000000	21.457600
1775.000000	725.000000	21.383900
1776.000000	724.000000	21.317800
1777.000000	723.000000	21.280100
1778.000000	722.000000	21.226500
1779.000000	721.000000	21.155300
1780.000000	720.000000	21.067000
1781.000000	719.000000	20.984900
1782.000000	718.000000	20.938400
1783.000000	717.000000	20.884200
1784.000000	716.000000	20.810300
1785.000000	715.000000	20.727700
1786.000000	714.000000	20.659100
1787.000000	713.000000	20.600100
1788.000000	712.000000	20.566300
1789.000000	711.000000	20.475000
1790.000000	710.000000	20.389400
1791.000000	709.000000	20.349000
1792.000000	708.000000	20.295600
1793.000000	707.000000	20.249300
1794.000000	706.000000	20.193800
1795.000000	705.000000	20.159400
1796.000000	704.000000	20.124900
1797.000000	703.000000	20.120800
1798.000000	702.000000	20.094500
1799.000000	701.000000	20.076400
1800.000000	700.000000	20.070100
1801.000000	699.000000	20.061600
1802.000000	698.000000	20.053300
1803.000000	697.000000	20.052600
1804.000000	696.000000	20.063900
1805.000000	695.000000	20.079100
1806.000000	694.000000	20.078400
1807.000000	693.000000	20.055900
1808.000000	692.000000	20.050200
1809.000000	691.000000	20.043800
1810.000000	690.000000	20.030100
1811.000000	689.000000	20.009300
1812.000000	688.000000	20.013400
1813.000000	687.000000	20.007500
1814.000000	686.000000	19.973700
1815.000000	685.000000	19.983800
1816.000000	684.000000	19.968700
1817.000000	683.000000	19.976200
1818.000000	682.000000	19.978200
1819.000000	681.000000	19.984000
1820.000000	680.000000	19.969200
1821.000000	679.000000	19.983000
1822.000000	678.000000	19.993900
1823.000000	677.000000	19.984700
1824.000000	676.000000	19.971100
1825.000000	675.000000	19.984200
1826.000000	674.000000	19.997000
1827.000000	673.000000	19.975600
1828.000000	672.000000	19.957500
1829.000000	671.000000	19.951700
1830.000000	670.000000	19.947300
1831.000000	669.000000	19.924900
1832.000000	668.000000	19.885700
1833.000000	667.000000	19.841100
1834.000000	666.000000	19.768900
1835.000000	665.000000	19.718000
1836.000000	664.000000	19.669800
1837.000000	663.000000	19.588900
1838.000000	662.000000	19.508500
1839.000000	661.000000	19.422000
1840.000000	660.000000	19.337900
1841.000000	659.000000	19.222200
1842.000000	658.000000	19.134400
1843.000000	657.000000	19.031200
1844.000000	656.000000	18.911400
1845.000000	655.000000	18.793300
1846.000000	654.000000	18.680700
1847.000000	653.000000	18.545700
1848.000000	652.000000	18.425200
1849.000000	651.000000	18.280600
1850.000000	650.000000	18.141200
1851.000000	649.000000	18.014300
1852.000000	648.000000	17.897200
1853.000000	647.000000	17.766800
1854.000000	646.000000	17.641300
1855.000000	645.000000	17.547200
1856.000000	644.000000	17.450500
1857.000000	643.000000	17.395800
1858.000000	642.000000	17.324200
1859.000000	641.000000	17.316800
1860.000000	640.000000	17.281900
1861.000000	639.000000	17.331100
1862.000000	638.000000	17.412100
1863.000000	637.000000	17.529800
1864.000000	636.000000	17.702100
1865.000000	635.000000	17.912800
1866.000000	634.000000	18.160100
1867.000000	633.000000	18.438600
1868.000000	632.000000	18.722000
1869.000000	631.000000	19.051100
1870.000000	630.000000	19.404800
1871.000000	629.000000	19.736700
1872.000000	628.000000	20.088700
1873.000000	627.000000	20.395900
1874.000000	626.000000	20.707200
1875.000000	625.000000	21.018900
1876.000000	624.000000	21.343900
1877.000000	623.000000	21.641000
1878.000000	622.000000	21.913300
1879.000000	621.000000	22.201100
1880.000000	620.000000	22.509700
1881.000000	619.000000	22.749600
1882.000000	618.000000	23.034300
1883.000000	617.000000	23.272400
1884.000000	616.000000	23.527300
1885.000000	615.000000	23.768400
1886.000000	614.000000	24.009600
1887.000000	613.000000	24.250500
1888.000000	612.000000	24.491500
1889.000000	611.000000	24.709000
1890.000000	610.000000	24.894200
1891.000000	609.000000	25.072100
1892.000000	608.000000	25.229500
1893.000000	607.000000	25.362800
1894.000000	606.000000	25.454500
1895.000000	605.000000	25.574200
1896.000000	604.000000	25.635800
1897.000000	603.000000	25.649700
1898.000000	602.000000	25.692900
1899.000000	601.000000	25.710700
1900.000000	600.000000	25.675700
1901.000000	599.000000	25.685300
1902.000000	598.000000	25.682100
1903.000000	597.000000	25.655200
1904.000000	596.000000	25.679300
1905.000000	595.000000	25.668800
1906.000000	594.000000	25.669900
1907.000000	593.000000	25.713300
1908.000000	592.000000	25.730600
1909.000000	591.000000	25.783600
1910.000000	590.000000	25.832100
1911.000000	589.000000	25.888300
1912.000000	588.000000	25.944800
1913.000000	587.000000	25.981300
1914.000000	586.000000	26.050200
1915.000000	585.000000	26.115700
1916.000000	584.000000	26.159400
1917.000000	583.000000	26.194600
1918.000000	582.000000	26.255100
1919.000000	581.000000	26.260300
1920.000000	580.000000	26.267200
1921.000000	579.000000	26.263400
1922.000000	578.000000	26.270300
1923.000000	577.000000	26.265400
1924.000000	576.000000	26.210400
1925.000000	575.000000	26.180200
1926.000000	574.000000	26.154600
1927.000000	573.000000	26.104900
1928.000000	572.000000	26.089400
1929.000000	571.000000	26.038100
1930.000000	570.000000	26.016700
1931.000000	569.000000	26.024800
1932.000000	568.000000	25.990600
1933.000000	567.000000	25.979100
1934.000000	566.000000	25.968600
1935.000000	565.000000	25.944700
1936.000000	564.000000	25.926200
1937.000000	563.000000	25.901100
1938.000000	562.000000	25.847400
1939.000000	561.000000	25.789300
1940.000000	560.000000	25.798200
1941.000000	559.000000	26.369600
1942.000000	558.000000	26.252200
1943.000000	557.000000	26.089100
1944.000000	556.000000	25.893800
1945.000000	555.000000	25.685500
1946.000000	554.000000	25.483900
1947.000000	553.000000	25.227900
1948.000000	552.000000	24.949500
1949.000000	551.000000	24.676600
1950.000000	550.000000	24.369100
1951.000000	549.000000	24.067300
1952.000000	548.000000	23.741200
1953.000000	547.000000	23.416700
1954.000000	546.000000	23.087200
1955.000000	545.000000	22.729900
1956.000000	544.000000	22.341000
1957.000000	543.000000	21.948600
1958.000000	542.000000	21.543700
1959.000000	541.000000	21.129900
1960.000000	540.000000	20.693000
1961.000000	539.000000	20.266800
1962.000000	538.000000	19.848000
1963.000000	537.000000	19.427100
1964.000000	536.000000	19.007200
1965.000000	535.000000	18.580900
1966.000000	534.000000	18.160800
1967.000000	533.000000	17.755400
1968.000000	532.000000	17.347400
1969.000000	531.000000	16.947500
1970.000000	530.000000	16.569900
1971.000000	529.000000	16.201900
1972.000000	528.000000	15.867600
1973.000000	527.000000	15.545200
1974.000000	526.000000	15.243900
1975.000000	525.000000	14.953200
1976.000000	524.000000	14.692200
1977.000000	523.000000	14.430600
1978.000000	522.000000	14.186300
1979.000000	521.000000	13.956300
1980.000000	520.000000	13.747300
1981.000000	519.000000	13.541400
1982.000000	518.000000	13.365200
1983.000000	517.000000	13.199200
1984.000000	516.000000	13.023500
1985.000000	515.000000	12.863900
1986.000000	514.000000	12.716400
1987.000000	513.000000	12.546800
1988.000000	512.000000	12.387300
1989.000000	511.000000	12.225200
1990.000000	510.000000	12.054400
1991.000000	509.000000	11.899100
1992.000000	508.000000	11.757700
1993.000000	507.000000	11.619100
1994.000000	506.000000	11.473400
1995.000000	505.000000	11.332700
1996.000000	504.000000	11.182900
1997.000000	503.000000	11.036100
1998.000000	502.000000	10.898700
1999.000000	501.000000	10.761200
2000.000000	500.000000	10.616600
2001.000000	499.000000	10.477100
2002.000000	498.000000	10.352100
2003.000000	497.000000	10.214000
2004.000000	496.000000	10.069200
2005.000000	495.000000	9.935500
2006.000000	494.000000	9.799200
2007.000000	493.000000	9.664300
2008.000000	492.000000	9.537900
2009.000000	491.000000	9.411700
2010.000000	490.000000	9.277900
2011.000000	489.000000	9.153700
2012.000000	488.000000	9.018700
2013.000000	487.000000	8.884300
2014.000000	486.000000	8.743800
2015.000000	485.000000	8.625800
2016.000000	484.000000	8.507200
2017.000000	483.000000	8.382000
2018.000000	482.000000	8.258400
2019.000000	481.000000	8.138800
2020.000000	480.000000	8.020100
2021.000000	479.000000	7.904600
2022.000000	478.000000	7.789200
2023.000000	477.000000	7.674100
2024.000000	476.000000	7.557000
2025.000000	475.000000	7.440700
2026.000000	474.000000	7.316400
2027.000000	473.000000	7.203300
2028.000000	472.000000	7.095300
2029.000000	471.000000	6.988900
2030.000000	470.000000	6.888800
2031.000000	469.000000	6.798700
2032.000000	468.000000	6.723700
2033.000000	467.000000	6.650800
2034.000000	466.000000	6.579000
2035.000000	465.000000	6.520100
2036.000000	464.000000	6.462500
2037.000000	463.000000	6.419000
2038.000000	462.000000	6.397100
2039.000000	461.000000	6.372100
2040.000000	460.000000	6.353500
2041.000000	459.000000	6.338000
2042.000000	458.000000	6.328200
2043.000000	457.000000	6.339400
2044.000000	456.000000	6.357700
2045.000000	455.000000	6.370300
2046.000000	454.000000	6.392000
2047.000000	453.000000	6.418500
2048.000000	452.000000	6.441600
2049.000000	451.000000	6.476000
2050.000000	450.000000	6.514000
2051.000000	449.000000	6.542800
2052.000000	448.000000	6.569200
2053.000000	447.000000	6.595500
2054.000000	446.000000	6.608300
2055.000000	445.000000	6.626600
2056.000000	444.000000	6.636200
2057.000000	443.000000	6.638400
2058.000000	442.000000	6.636600
2059.000000	441.000000	6.621100
2060.000000	440.000000	6.606600
2061.000000	439.000000	6.586100
2062.000000	438.000000	6.558200
2063.000000	437.000000	6.524700
2064.000000	436.000000	6.484900
2065.000000	435.000000	6.442100
2066.000000	434.000000	6.399800
2067.000000	433.000000	6.352000
2068.000000	432.000000	6.307000
2069.000000	431.000000	6.263600
2070.000000	430.000000	6.214000
2071.000000	429.000000	6.158300
2072.000000	428.000000	6.097200
2073.000000	427.000000	6.044200
2074.000000	426.000000	5.992700
2075.000000	425.000000	5.928900
2076.000000	424.000000	5.851600
2077.000000	423.000000	5.779800
2078.000000	422.000000	5.711200
2079.000000	421.000000	5.637600
2080.000000	420.000000	5.561300
2081.000000	419.000000	5.483400
2082.000000	418.000000	5.400800
2083.000000	417.000000	5.328900
2084.000000	416.000000	5.260100
2085.000000	415.000000	5.177200
2086.000000	414.000000	5.092000
2087.000000	413.000000	4.992900
2088.000000	412.000000	4.898700
2089.000000	411.000000	4.803700
2090.000000	410.000000	4.713600
2091.000000	409.000000	4.610600
2092.000000	408.000000	4.519900
2093.000000	407.000000	4.429700
2094.000000	406.000000	4.324700
2095.000000	405.000000	4.221500
2096.000000	404.000000	4.121200
2097.000000	403.000000	4.028700
2098.000000	402.000000	3.936000
2099.000000	401.000000	3.839000
2100.000000	400.000000	3.748100
2101.000000	399.000000	3.655600
2102.000000	398.000000	3.560400
2103.000000	397.000000	3.472700
2104.000000	396.000000	3.394100
2105.000000	395.000000	3.313500
2106.000000	394.000000	3.232700
2107.000000	393.000000	3.160000
2108.000000	392.000000	3.089500
2109.000000	391.000000	3.037700
2110.000000	390.000000	2.967100
2111.000000	389.000000	2.909300
2112.000000	388.000000	2.861700
2113.000000	387.000000	2.819500
2114.000000	386.000000	2.782500
2115.000000	385.000000	2.739700
2116.000000	384.000000	2.700000
2117.000000	383.000000	2.661200
2118.000000	382.000000	2.638700
2119.000000	381.000000	2.609200
2120.000000	380.000000	2.573000
2121.000000	379.000000	2.552400
2122.000000	378.000000	2.540500
2123.000000	377.000000	2.509900
2124.000000	376.000000	2.818900
2125.000000	375.000000	2.699800
2126.000000	374.000000	2.647800
2127.000000	373.000000	2.786600
2128.000000	372.000000	2.800100
2129.000000	371.000000	2.748600
2130.000000	370.000000	2.761600
2131.000000	369.000000	2.785900
2132.000000	368.000000	2.784200
2133.000000	367.000000	2.735600
2134.000000	366.000000	2.692200
2135.000000	365.000000	2.753300
2136.000000	364.000000	2.742800
2137.000000	363.000000	2.759700
2138.000000	362.000000	2.840500
2139.000000	361.000000	2.765000
2140.000000	360.000000	2.777100
2141.000000	359.000000	2.714200
2142.000000	358.000000	2.756500
2143.000000	357.000000	2.810900
2144.000000	356.000000	2.703100
2145.000000	355.000000	2.709200
2146.000000	354.000000	2.691700
2147.000000	353.000000	2.689200
2148.000000	352.000000	2.733700
2149.000000	351.000000	2.676600
2150.000000	350.000000	2.685600
2151.000000	349.000000	2.595100
2152.000000	348.000000	2.624400
2153.000000	347.000000	2.614600
2154.000000	346.000000	2.557400
2155.000000	345.000000	2.664200
2156.000000	344.000000	2.729500
2157.000000	343.000000	2.643400
2158.000000	342.000000	2.742900
2159.000000	341.000000	2.724800
2160.000000	340.000000	2.691700
2161.000000	339.000000	2.711900
2162.000000	338.000000	2.711200
2163.000000	337.000000	2.780500
2164.000000	336.000000	2.888500
2165.000000	335.000000	2.850400
2166.000000	334.000000	2.904300
2167.000000	333.000000	2.854100
2168.000000	332.000000	2.774800
2169.000000	331.000000	2.862100
2170.000000	330.000000	2.853700
2171.000000	329.000000	2.934100
2172.000000	328.000000	3.034300
2173.000000	327.000000	3.094200
2174.000000	326.000000	3.018300
2175.000000	325.000000	2.866400
2176.000000	324.000000	2.807700
2177.000000	323.000000	2.954400
2178.000000	322.000000	2.858400
2179.000000	321.000000	3.068400
2180.000000	320.000000	3.116000
2181.000000	319.000000	3.333500
2182.000000	318.000000	2.958700
2183.000000	317.000000	3.021200
2184.000000	316.000000	2.558400
2185.000000	315.000000	2.580600
2186.000000	314.000000	2.570700
2187.000000	313.000000	2.543200
2188.000000	312.000000	2.571300
2189.000000	311.000000	2.589100
2190.000000	310.000000	2.579200
2191.000000	309.000000	2.589900
2192.000000	308.000000	2.543300
2193.000000	307.000000	2.600200
2194.000000	306.000000	2.565100
2195.000000	305.000000	2.548500
2196.000000	304.000000	2.542300
2197.000000	303.000000	2.526300
2198.000000	302.000000	2.569100
2199.000000	301.000000	2.563000
2200.000000	300.000000	2.488900
2201.000000	299.000000	2.538700
2202.000000	298.000000	2.536700
2203.000000	297.000000	2.606200
2204.000000	296.000000	2.556600
2205.000000	295.000000	2.565000
2206.000000	294.000000	2.557400
2207.000000	293.000000	2.607100
2208.000000	292.000000	2.592800
2209.000000	291.000000	2.578400
2210.000000	290.000000	2.572700
2211.000000	289.000000	2.610000
2212.000000	288.000000	2.579700
2213.000000	287.000000	2.577700
2214.000000	286.000000	2.622200
2215.000000	285.000000	2.544700
2216.000000	284.000000	2.632300
2217.000000	283.000000	2.627400
2218.000000	282.000000	2.605900
2219.000000	281.000000	2.578600
2220.000000	280.000000	2.584100
2221.000000	279.000000	2.621800
2222.000000	278.000000	2.595400
2223.000000	277.000000	2.634700
2224.000000	276.000000	2.644200
2225.000000	275.000000	2.627900
2226.000000	274.000000	2.637600
2227.000000	273.000000	2.617500
2228.000000	272.000000	2.653100
2229.000000	271.000000	2.647700
2230.000000	270.000000	2.632900
2231.000000	269.000000	2.674500
2232.000000	268.000000	2.656400
2233.000000	267.000000	2.675100
2234.000000	266.000000	2.679200
2235.000000	265.000000	2.708500
2236.000000	264.000000	2.709500
2237.000000	263.000000	2.746100
2238.000000	262.000000	2.770200
2239.000000	261.000000	2.775600
2240.000000	260.000000	2.785600
2241.000000	259.000000	2.712300
2242.000000	258.000000	2.781500
2243.000000	257.000000	2.765200
2244.000000	256.000000	2.769700
2245.000000	255.000000	2.762000
2246.000000	254.000000	2.758600
2247.000000	253.000000	2.755200
2248.000000	252.000000	2.826700
2249.000000	251.000000	2.818900
2250.000000	250.000000	2.830100
