PE UV       SUBTECH     SPECTRUM    ASCII       PEDS        4.00        
   -1
CICIMAUCR0019-1.Sample.ASC
24/03/08
13:32:45.00
24/03/08
13:32:45.00
Vinicio Soto Monge
C. cupreomarginata
250,000000
1
Lambda 1050
1050L1511233
PerkinElmer UV WinLab 6.3.2.0749 / 2.02.05 Lambda 900 UV/VIS/NIR, Aug  7 2015 09:38:08

0
0
3350/servo 860,8/2
0
0
UV/VIS
1
1
1
DoubleDePol,CommonBeamDepol,RBeamAtt,SBeamAtt,60mm sphere, WB InGaAs Detector
0
0
0
0
Program
Program
3350/servo 860,8/2
3350/0,2 860,8/0,2
3350/0,2 860,8/0,2
0
15.00
 
 
 
0
 
860,8
319,2
860,8
Front
100
on
S:100 R:100
0
0
0
0
 
0
 
 
 
0
 
 
0
0
0
0
0
 
 
 
 
0
0


0
0
#HDR
-1
-1
#GR
nm
%R
1.0
0.0
2500,000000
-1,000000
2251
8
27,863200
2,274800
#DATA
501.000000	1999.000000	9.297024
502.000000	1998.000000	9.298009
503.000000	1997.000000	9.282474
504.000000	1996.000000	9.283131
505.000000	1995.000000	9.258516
506.000000	1994.000000	9.222742
507.000000	1993.000000	9.224711
508.000000	1992.000000	9.207098
509.000000	1991.000000	9.149772
510.000000	1990.000000	9.155680
511.000000	1989.000000	9.116077
512.000000	1988.000000	9.099120
513.000000	1987.000000	9.044420
514.000000	1986.000000	9.028557
515.000000	1985.000000	9.002957
516.000000	1984.000000	8.972654
517.000000	1983.000000	8.930972
518.000000	1982.000000	8.900231
519.000000	1981.000000	8.875616
520.000000	1980.000000	8.836341
521.000000	1979.000000	8.787221
522.000000	1978.000000	8.773108
523.000000	1977.000000	8.708672
524.000000	1976.000000	8.678805
525.000000	1975.000000	8.660864
526.000000	1974.000000	8.626731
527.000000	1973.000000	8.583190
528.000000	1972.000000	8.552120
529.000000	1971.000000	8.499061
530.000000	1970.000000	8.469852
531.000000	1969.000000	8.455083
532.000000	1968.000000	8.417011
533.000000	1967.000000	8.395350
534.000000	1966.000000	8.368766
535.000000	1965.000000	8.330148
536.000000	1964.000000	8.309252
537.000000	1963.000000	8.274135
538.000000	1962.000000	8.239784
539.000000	1961.000000	8.217357
540.000000	1960.000000	8.159046
541.000000	1959.000000	8.138589
542.000000	1958.000000	8.118568
543.000000	1957.000000	8.083451
544.000000	1956.000000	8.036628
545.000000	1955.000000	8.019343
546.000000	1954.000000	7.985429
547.000000	1953.000000	7.956219
548.000000	1952.000000	7.920664
549.000000	1951.000000	7.880733
550.000000	1950.000000	7.831284
551.000000	1949.000000	7.840802
552.000000	1948.000000	7.812796
553.000000	1947.000000	7.778772
554.000000	1946.000000	7.761268
555.000000	1945.000000	7.731074
556.000000	1944.000000	7.738622
557.000000	1943.000000	7.732496
558.000000	1942.000000	7.726698
559.000000	1941.000000	7.722650
560.000000	1940.000000	7.694972
561.000000	1939.000000	7.681406
562.000000	1938.000000	7.681516
563.000000	1937.000000	7.719915
564.000000	1936.000000	7.706459
565.000000	1935.000000	7.713023
566.000000	1934.000000	7.751641
567.000000	1933.000000	7.787524
568.000000	1932.000000	7.825595
569.000000	1931.000000	7.858853
570.000000	1930.000000	7.893423
571.000000	1929.000000	7.913444
572.000000	1928.000000	7.972848
573.000000	1927.000000	8.006433
574.000000	1926.000000	8.100189
575.000000	1925.000000	8.162657
576.000000	1924.000000	8.227421
577.000000	1923.000000	8.296890
578.000000	1922.000000	8.377518
579.000000	1921.000000	8.446112
580.000000	1920.000000	8.551245
581.000000	1919.000000	8.629794
582.000000	1918.000000	8.721034
583.000000	1917.000000	8.836560
584.000000	1916.000000	8.947054
585.000000	1915.000000	9.045186
586.000000	1914.000000	9.169136
587.000000	1913.000000	9.276020
588.000000	1912.000000	9.391984
589.000000	1911.000000	9.514183
590.000000	1910.000000	9.654106
591.000000	1909.000000	9.780353
592.000000	1908.000000	9.919072
593.000000	1907.000000	10.035474
594.000000	1906.000000	10.163581
595.000000	1905.000000	10.325274
596.000000	1904.000000	10.455570
597.000000	1903.000000	10.611464
598.000000	1902.000000	10.752043
599.000000	1901.000000	10.894810
600.000000	1900.000000	11.052346
601.000000	1899.000000	11.202333
602.000000	1898.000000	11.377373
603.000000	1897.000000	11.562697
604.000000	1896.000000	11.713450
605.000000	1895.000000	11.852060
606.000000	1894.000000	12.013862
607.000000	1893.000000	12.171507
608.000000	1892.000000	12.307054
609.000000	1891.000000	12.457588
610.000000	1890.000000	12.591494
611.000000	1889.000000	12.727915
612.000000	1888.000000	12.907988
613.000000	1887.000000	13.079417
614.000000	1886.000000	13.243298
615.000000	1885.000000	13.430810
616.000000	1884.000000	13.637029
617.000000	1883.000000	13.836027
618.000000	1882.000000	14.071565
619.000000	1881.000000	14.313230
620.000000	1880.000000	14.538047
621.000000	1879.000000	14.754221
622.000000	1878.000000	14.947093
623.000000	1877.000000	15.139527
624.000000	1876.000000	15.286670
625.000000	1875.000000	15.425827
626.000000	1874.000000	15.557544
627.000000	1873.000000	15.660599
628.000000	1872.000000	15.744947
629.000000	1871.000000	15.832029
630.000000	1870.000000	15.893512
631.000000	1869.000000	15.958276
632.000000	1868.000000	16.058487
633.000000	1867.000000	16.117235
634.000000	1866.000000	16.176092
635.000000	1865.000000	16.254203
636.000000	1864.000000	16.315577
637.000000	1863.000000	16.359993
638.000000	1862.000000	16.364697
639.000000	1861.000000	16.377497
640.000000	1860.000000	16.364260
641.000000	1859.000000	16.331549
642.000000	1858.000000	16.305731
643.000000	1857.000000	16.312842
644.000000	1856.000000	16.310763
645.000000	1855.000000	16.298729
646.000000	1854.000000	16.268753
647.000000	1853.000000	16.219633
648.000000	1852.000000	16.182218
649.000000	1851.000000	16.182656
650.000000	1850.000000	16.184406
651.000000	1849.000000	16.133973
652.000000	1848.000000	16.043061
653.000000	1847.000000	15.949306
654.000000	1846.000000	15.895262
655.000000	1845.000000	15.899310
656.000000	1844.000000	15.924581
657.000000	1843.000000	15.930051
658.000000	1842.000000	15.916376
659.000000	1841.000000	15.880165
660.000000	1840.000000	15.826450
661.000000	1839.000000	15.780720
662.000000	1838.000000	15.738492
663.000000	1837.000000	15.698561
664.000000	1836.000000	15.659286
665.000000	1835.000000	15.633140
666.000000	1834.000000	15.599773
667.000000	1833.000000	15.575158
668.000000	1832.000000	15.557107
669.000000	1831.000000	15.517285
670.000000	1830.000000	15.460726
671.000000	1829.000000	15.411933
672.000000	1828.000000	15.363907
673.000000	1827.000000	15.313692
674.000000	1826.000000	15.277590
675.000000	1825.000000	15.262493
676.000000	1824.000000	15.244333
677.000000	1823.000000	15.255273
678.000000	1822.000000	15.252428
679.000000	1821.000000	15.204073
680.000000	1820.000000	15.148061
681.000000	1819.000000	15.112506
682.000000	1818.000000	15.111083
683.000000	1817.000000	15.137339
684.000000	1816.000000	15.151561
685.000000	1815.000000	15.145107
686.000000	1814.000000	15.137121
687.000000	1813.000000	15.142262
688.000000	1812.000000	15.136245
689.000000	1811.000000	15.110646
690.000000	1810.000000	15.084062
691.000000	1809.000000	15.049054
692.000000	1808.000000	15.041833
693.000000	1807.000000	15.029580
694.000000	1806.000000	14.999933
695.000000	1805.000000	14.955407
696.000000	1804.000000	14.933090
697.000000	1803.000000	14.910006
698.000000	1802.000000	14.882985
699.000000	1801.000000	14.853556
700.000000	1800.000000	14.806952
701.000000	1799.000000	14.775226
702.000000	1798.000000	14.761551
703.000000	1797.000000	14.743390
704.000000	1796.000000	14.713196
705.000000	1795.000000	14.688143
706.000000	1794.000000	14.641867
707.000000	1793.000000	14.621738
708.000000	1792.000000	14.609922
709.000000	1791.000000	14.562333
710.000000	1790.000000	14.518355
711.000000	1789.000000	14.499975
712.000000	1788.000000	14.461248
713.000000	1787.000000	14.408079
714.000000	1786.000000	14.379745
715.000000	1785.000000	14.321544
716.000000	1784.000000	14.258967
717.000000	1783.000000	14.215317
718.000000	1782.000000	14.178996
719.000000	1781.000000	14.138299
720.000000	1780.000000	14.073863
721.000000	1779.000000	14.012708
722.000000	1778.000000	13.932190
723.000000	1777.000000	13.895760
724.000000	1776.000000	13.831542
725.000000	1775.000000	13.749820
726.000000	1774.000000	13.668974
727.000000	1773.000000	13.593378
728.000000	1772.000000	13.506077
729.000000	1771.000000	13.424793
730.000000	1770.000000	13.349198
731.000000	1769.000000	13.272946
732.000000	1768.000000	13.216933
733.000000	1767.000000	13.144292
734.000000	1766.000000	13.082699
735.000000	1765.000000	13.028656
736.000000	1764.000000	12.985662
737.000000	1763.000000	12.989162
738.000000	1762.000000	13.001415
739.000000	1761.000000	13.025374
740.000000	1760.000000	13.067055
741.000000	1759.000000	13.084012
742.000000	1758.000000	13.109940
743.000000	1757.000000	13.147027
744.000000	1756.000000	13.172189
745.000000	1755.000000	13.198554
746.000000	1754.000000	13.196475
747.000000	1753.000000	13.182800
748.000000	1752.000000	13.165515
749.000000	1751.000000	13.129523
750.000000	1750.000000	13.104251
751.000000	1749.000000	13.070228
752.000000	1748.000000	13.021982
753.000000	1747.000000	12.978222
754.000000	1746.000000	12.890593
755.000000	1745.000000	12.815545
756.000000	1744.000000	12.699143
757.000000	1743.000000	12.561846
758.000000	1742.000000	12.468747
759.000000	1741.000000	12.340640
760.000000	1740.000000	12.173367
761.000000	1739.000000	12.040009
762.000000	1738.000000	11.933234
763.000000	1737.000000	11.812129
764.000000	1736.000000	11.746708
765.000000	1735.000000	11.680958
766.000000	1734.000000	11.638620
767.000000	1733.000000	11.649013
768.000000	1732.000000	11.699228
769.000000	1731.000000	11.731173
770.000000	1730.000000	11.795609
771.000000	1729.000000	11.841667
772.000000	1728.000000	11.907416
773.000000	1727.000000	11.965945
774.000000	1726.000000	12.038368
775.000000	1725.000000	12.055981
776.000000	1724.000000	12.119214
777.000000	1723.000000	12.096897
778.000000	1722.000000	12.114729
779.000000	1721.000000	12.148862
780.000000	1720.000000	12.146345
781.000000	1719.000000	12.168116
782.000000	1718.000000	12.172383
783.000000	1717.000000	12.229380
784.000000	1716.000000	12.273359
785.000000	1715.000000	12.314931
786.000000	1714.000000	12.320401
787.000000	1713.000000	12.365473
788.000000	1712.000000	12.381883
789.000000	1711.000000	12.424987
790.000000	1710.000000	12.433192
791.000000	1709.000000	12.446320
792.000000	1708.000000	12.443038
793.000000	1707.000000	12.430457
794.000000	1706.000000	12.411093
795.000000	1705.000000	12.388666
796.000000	1704.000000	12.361097
797.000000	1703.000000	12.309898
798.000000	1702.000000	12.274015
799.000000	1701.000000	12.197326
800.000000	1700.000000	12.108384
801.000000	1699.000000	12.014081
802.000000	1698.000000	11.951832
803.000000	1697.000000	11.877003
804.000000	1696.000000	11.864531
805.000000	1695.000000	11.831930
806.000000	1694.000000	11.852497
807.000000	1693.000000	11.940892
808.000000	1692.000000	12.021192
809.000000	1691.000000	12.157395
810.000000	1690.000000	12.211110
811.000000	1689.000000	12.281017
812.000000	1688.000000	12.324558
813.000000	1687.000000	12.343265
814.000000	1686.000000	12.357597
815.000000	1685.000000	12.369631
816.000000	1684.000000	12.422908
817.000000	1683.000000	12.572458
818.000000	1682.000000	12.769487
819.000000	1681.000000	12.996383
820.000000	1680.000000	13.301280
821.000000	1679.000000	13.623791
822.000000	1678.000000	13.941161
823.000000	1677.000000	14.234352
824.000000	1676.000000	14.480721
825.000000	1675.000000	14.737811
826.000000	1674.000000	14.890533
827.000000	1673.000000	15.068964
828.000000	1672.000000	15.204839
829.000000	1671.000000	15.351435
830.000000	1670.000000	15.444972
831.000000	1669.000000	15.543323
832.000000	1668.000000	15.641345
833.000000	1667.000000	15.763216
834.000000	1666.000000	15.824809
835.000000	1665.000000	15.897888
836.000000	1664.000000	15.950290
837.000000	1663.000000	15.975562
838.000000	1662.000000	16.017243
839.000000	1661.000000	16.030918
840.000000	1660.000000	16.076866
841.000000	1659.000000	16.107717
842.000000	1658.000000	16.120954
843.000000	1657.000000	16.134301
844.000000	1656.000000	16.141412
845.000000	1655.000000	16.130800
846.000000	1654.000000	16.134738
847.000000	1653.000000	16.126643
848.000000	1652.000000	16.110014
849.000000	1651.000000	16.106513
850.000000	1650.000000	16.089556
851.000000	1649.000000	16.076538
852.000000	1648.000000	16.076100
853.000000	1647.000000	16.031574
854.000000	1646.000000	16.012211
855.000000	1645.000000	15.999192
856.000000	1644.000000	15.975671
857.000000	1643.000000	15.941648
858.000000	1642.000000	15.903139
859.000000	1641.000000	15.876773
860.000000	1640.000000	15.832576
861.000000	1639.000000	15.808508
862.000000	1638.000000	15.770437
863.000000	1637.000000	15.727880
864.000000	1636.000000	15.680948
865.000000	1635.000000	15.649222
866.000000	1634.000000	15.625919
867.000000	1633.000000	15.588505
868.000000	1632.000000	15.551746
869.000000	1631.000000	15.487200
870.000000	1630.000000	15.442018
871.000000	1629.000000	15.401868
872.000000	1628.000000	15.353514
873.000000	1627.000000	15.299251
874.000000	1626.000000	15.257789
875.000000	1625.000000	15.226500
876.000000	1624.000000	15.169503
877.000000	1623.000000	15.108786
878.000000	1622.000000	15.060322
879.000000	1621.000000	15.028924
880.000000	1620.000000	15.013717
881.000000	1619.000000	14.970176
882.000000	1618.000000	14.910335
883.000000	1617.000000	14.876311
884.000000	1616.000000	14.825003
885.000000	1615.000000	14.793933
886.000000	1614.000000	14.754330
887.000000	1613.000000	14.706304
888.000000	1612.000000	14.662434
889.000000	1611.000000	14.598326
890.000000	1610.000000	14.559817
891.000000	1609.000000	14.537609
892.000000	1608.000000	14.496693
893.000000	1607.000000	14.449870
894.000000	1606.000000	14.413768
895.000000	1605.000000	14.359178
896.000000	1604.000000	14.316840
897.000000	1603.000000	14.294851
898.000000	1602.000000	14.260061
899.000000	1601.000000	14.212691
900.000000	1600.000000	14.164774
901.000000	1599.000000	14.139503
902.000000	1598.000000	14.088851
903.000000	1597.000000	14.050014
904.000000	1596.000000	14.027805
905.000000	1595.000000	13.990391
906.000000	1594.000000	13.946959
907.000000	1593.000000	13.924641
908.000000	1592.000000	13.892259
909.000000	1591.000000	13.852109
910.000000	1590.000000	13.814913
911.000000	1589.000000	13.791502
912.000000	1588.000000	13.780343
913.000000	1587.000000	13.762948
914.000000	1586.000000	13.727174
915.000000	1585.000000	13.695339
916.000000	1584.000000	13.679695
917.000000	1583.000000	13.671052
918.000000	1582.000000	13.666676
919.000000	1581.000000	13.653439
920.000000	1580.000000	13.645781
921.000000	1579.000000	13.633966
922.000000	1578.000000	13.612851
923.000000	1577.000000	13.608475
924.000000	1576.000000	13.600380
925.000000	1575.000000	13.602021
926.000000	1574.000000	13.601583
927.000000	1573.000000	13.606506
928.000000	1572.000000	13.621713
929.000000	1571.000000	13.624448
930.000000	1570.000000	13.635388
931.000000	1569.000000	13.647094
932.000000	1568.000000	13.659018
933.000000	1567.000000	13.666786
934.000000	1566.000000	13.685165
935.000000	1565.000000	13.697855
936.000000	1564.000000	13.718641
937.000000	1563.000000	13.734285
938.000000	1562.000000	13.735270
939.000000	1561.000000	13.755509
940.000000	1560.000000	13.780671
941.000000	1559.000000	13.776186
942.000000	1558.000000	13.778264
943.000000	1557.000000	13.783844
944.000000	1556.000000	13.793471
945.000000	1555.000000	13.812944
946.000000	1554.000000	13.809005
947.000000	1553.000000	13.813928
948.000000	1552.000000	13.809990
949.000000	1551.000000	13.799269
950.000000	1550.000000	13.811303
951.000000	1549.000000	13.805395
952.000000	1548.000000	13.808021
953.000000	1547.000000	13.805833
954.000000	1546.000000	13.795878
955.000000	1545.000000	13.798503
956.000000	1544.000000	13.799707
957.000000	1543.000000	13.799816
958.000000	1542.000000	13.791392
959.000000	1541.000000	13.791611
960.000000	1540.000000	13.807693
961.000000	1539.000000	13.817429
962.000000	1538.000000	13.813819
963.000000	1537.000000	13.812944
964.000000	1536.000000	13.826728
965.000000	1535.000000	13.831432
966.000000	1534.000000	13.815569
967.000000	1533.000000	13.816335
968.000000	1532.000000	13.817867
969.000000	1531.000000	13.811959
970.000000	1530.000000	13.807693
971.000000	1529.000000	13.814804
972.000000	1528.000000	13.820274
973.000000	1527.000000	13.816116
974.000000	1526.000000	13.793471
975.000000	1525.000000	13.762182
976.000000	1524.000000	13.763933
977.000000	1523.000000	13.760760
978.000000	1522.000000	13.740412
979.000000	1521.000000	13.747304
980.000000	1520.000000	13.747851
981.000000	1519.000000	13.724221
982.000000	1518.000000	13.719407
983.000000	1517.000000	13.697746
984.000000	1516.000000	13.672146
985.000000	1515.000000	13.691182
986.000000	1514.000000	13.692713
987.000000	1513.000000	13.674334
988.000000	1512.000000	13.663066
989.000000	1511.000000	13.655080
990.000000	1510.000000	13.640530
991.000000	1509.000000	13.625651
992.000000	1508.000000	13.621166
993.000000	1507.000000	13.613508
994.000000	1506.000000	13.590643
995.000000	1505.000000	13.588674
996.000000	1504.000000	13.571608
997.000000	1503.000000	13.556073
998.000000	1502.000000	13.560558
999.000000	1501.000000	13.566028
1000.000000	1500.000000	13.565044
1001.000000	1499.000000	13.557386
1002.000000	1498.000000	13.551587
1003.000000	1497.000000	13.561105
1004.000000	1496.000000	13.558698
1005.000000	1495.000000	13.571936
1006.000000	1494.000000	13.574999
1007.000000	1493.000000	13.599505
1008.000000	1492.000000	13.596988
1009.000000	1491.000000	13.603552
1010.000000	1490.000000	13.628496
1011.000000	1489.000000	13.658581
1012.000000	1488.000000	13.664269
1013.000000	1487.000000	13.678601
1014.000000	1486.000000	13.697746
1015.000000	1485.000000	13.724986
1016.000000	1484.000000	13.743256
1017.000000	1483.000000	13.756494
1018.000000	1482.000000	13.788001
1019.000000	1481.000000	13.803645
1020.000000	1480.000000	13.816116
1021.000000	1479.000000	13.845545
1022.000000	1478.000000	13.862830
1023.000000	1477.000000	13.887555
1024.000000	1476.000000	13.936566
1025.000000	1475.000000	13.955711
1026.000000	1474.000000	13.980654
1027.000000	1473.000000	14.021570
1028.000000	1472.000000	14.068065
1029.000000	1471.000000	14.068940
1030.000000	1470.000000	14.099572
1031.000000	1469.000000	14.125390
1032.000000	1468.000000	14.157007
1033.000000	1467.000000	14.172651
1034.000000	1466.000000	14.204596
1035.000000	1465.000000	14.229211
1036.000000	1464.000000	14.279535
1037.000000	1463.000000	14.303274
1038.000000	1462.000000	14.367602
1039.000000	1461.000000	14.380620
1040.000000	1460.000000	14.407314
1041.000000	1459.000000	14.452933
1042.000000	1458.000000	14.489801
1043.000000	1457.000000	14.543954
1044.000000	1456.000000	14.592200
1045.000000	1455.000000	14.626989
1046.000000	1454.000000	14.680376
1047.000000	1453.000000	14.742406
1048.000000	1452.000000	14.786275
1049.000000	1451.000000	14.859354
1050.000000	1450.000000	14.901473
1051.000000	1449.000000	14.935497
1052.000000	1448.000000	15.017656
1053.000000	1447.000000	15.074434
1054.000000	1446.000000	15.159110
1055.000000	1445.000000	15.197728
1056.000000	1444.000000	15.236018
1057.000000	1443.000000	15.324632
1058.000000	1442.000000	15.393445
1059.000000	1441.000000	15.448910
1060.000000	1440.000000	15.492014
1061.000000	1439.000000	15.559514
1062.000000	1438.000000	15.604368
1063.000000	1437.000000	15.674821
1064.000000	1436.000000	15.736413
1065.000000	1435.000000	15.777876
1066.000000	1434.000000	15.850080
1067.000000	1433.000000	15.923815
1068.000000	1432.000000	15.975452
1069.000000	1431.000000	16.032778
1070.000000	1430.000000	16.106513
1071.000000	1429.000000	16.149945
1072.000000	1428.000000	16.241732
1073.000000	1427.000000	16.337128
1074.000000	1426.000000	16.448826
1075.000000	1425.000000	16.549583
1076.000000	1424.000000	16.638197
1077.000000	1423.000000	16.764116
1078.000000	1422.000000	16.836648
1079.000000	1421.000000	16.923293
1080.000000	1420.000000	17.059715
1081.000000	1419.000000	17.139686
1082.000000	1418.000000	17.194277
1083.000000	1417.000000	17.282781
1084.000000	1416.000000	17.403340
1085.000000	1415.000000	17.503332
1086.000000	1414.000000	17.539543
1087.000000	1413.000000	17.625750
1088.000000	1412.000000	17.689968
1089.000000	1411.000000	17.761297
1090.000000	1410.000000	17.909752
1091.000000	1409.000000	18.022434
1092.000000	1408.000000	18.114002
1093.000000	1407.000000	18.243641
1094.000000	1406.000000	18.360918
1095.000000	1405.000000	18.495917
1096.000000	1404.000000	18.598644
1097.000000	1403.000000	18.754320
1098.000000	1402.000000	18.879583
1099.000000	1401.000000	19.033399
1100.000000	1400.000000	19.116324
1101.000000	1399.000000	19.133172
1102.000000	1398.000000	19.159099
1103.000000	1397.000000	19.201000
1104.000000	1396.000000	19.233710
1105.000000	1395.000000	19.196624
1106.000000	1394.000000	19.146300
1107.000000	1393.000000	19.116324
1108.000000	1392.000000	19.097179
1109.000000	1391.000000	19.056592
1110.000000	1390.000000	19.089302
1111.000000	1389.000000	19.102321
1112.000000	1388.000000	19.133172
1113.000000	1387.000000	19.150019
1114.000000	1386.000000	19.224958
1115.000000	1385.000000	19.345626
1116.000000	1384.000000	19.488612
1117.000000	1383.000000	19.613766
1118.000000	1382.000000	19.762331
1119.000000	1381.000000	19.869543
1120.000000	1380.000000	20.030360
1121.000000	1379.000000	20.154858
1122.000000	1378.000000	20.359654
1123.000000	1377.000000	20.572765
1124.000000	1376.000000	20.848891
1125.000000	1375.000000	21.115826
1126.000000	1374.000000	21.390748
1127.000000	1373.000000	21.732186
1128.000000	1372.000000	22.026690
1129.000000	1371.000000	22.286515
1130.000000	1370.000000	22.520959
1131.000000	1369.000000	22.737571
1132.000000	1368.000000	22.954292
1133.000000	1367.000000	23.072882
1134.000000	1366.000000	23.203505
1135.000000	1365.000000	23.346929
1136.000000	1364.000000	23.448889
1137.000000	1363.000000	23.549537
1138.000000	1362.000000	23.625023
1139.000000	1361.000000	23.662329
1140.000000	1360.000000	23.691538
1141.000000	1359.000000	23.746676
1142.000000	1358.000000	23.792077
1143.000000	1357.000000	23.889224
1144.000000	1356.000000	24.034616
1145.000000	1355.000000	24.212829
1146.000000	1354.000000	24.443225
1147.000000	1353.000000	24.701300
1148.000000	1352.000000	24.939135
1149.000000	1351.000000	25.202461
1150.000000	1350.000000	25.426512
1151.000000	1349.000000	25.638419
1152.000000	1348.000000	25.862689
1153.000000	1347.000000	26.013333
1154.000000	1346.000000	26.151724
1155.000000	1345.000000	26.313198
1156.000000	1344.000000	26.466249
1157.000000	1343.000000	26.620065
1158.000000	1342.000000	26.755283
1159.000000	1341.000000	26.876717
1160.000000	1340.000000	26.991478
1161.000000	1339.000000	27.105254
1162.000000	1338.000000	27.213559
1163.000000	1337.000000	27.314207
1164.000000	1336.000000	27.411902
1165.000000	1335.000000	27.494608
1166.000000	1334.000000	27.598647
1167.000000	1333.000000	27.691637
1168.000000	1332.000000	27.772484
1169.000000	1331.000000	27.849939
1170.000000	1330.000000	27.929254
1171.000000	1329.000000	27.988658
1172.000000	1328.000000	28.052547
1173.000000	1327.000000	28.109107
1174.000000	1326.000000	28.174310
1175.000000	1325.000000	28.234589
1176.000000	1324.000000	28.288851
1177.000000	1323.000000	28.346833
1178.000000	1322.000000	28.404487
1179.000000	1321.000000	28.437635
1180.000000	1320.000000	28.473956
1181.000000	1319.000000	28.525812
1182.000000	1318.000000	28.555459
1183.000000	1317.000000	28.576573
1184.000000	1316.000000	28.606111
1185.000000	1315.000000	28.647683
1186.000000	1314.000000	28.676565
1187.000000	1313.000000	28.690240
1188.000000	1312.000000	28.691771
1189.000000	1311.000000	28.713870
1190.000000	1310.000000	28.753035
1191.000000	1309.000000	28.754786
1192.000000	1308.000000	28.749425
1193.000000	1307.000000	28.753473
1194.000000	1306.000000	28.749534
1195.000000	1305.000000	28.749316
1196.000000	1304.000000	28.751066
1197.000000	1303.000000	28.753910
1198.000000	1302.000000	28.751722
1199.000000	1301.000000	28.728967
1200.000000	1300.000000	28.703368
1201.000000	1299.000000	28.687067
1202.000000	1298.000000	28.680831
1203.000000	1297.000000	28.667594
1204.000000	1296.000000	28.659279
1205.000000	1295.000000	28.649324
1206.000000	1294.000000	28.614754
1207.000000	1293.000000	28.585872
1208.000000	1292.000000	28.569900
1209.000000	1291.000000	28.560820
1210.000000	1290.000000	28.534454
1211.000000	1289.000000	28.493429
1212.000000	1288.000000	28.468595
1213.000000	1287.000000	28.441245
1214.000000	1286.000000	28.418162
1215.000000	1285.000000	28.394750
1216.000000	1284.000000	28.362368
1217.000000	1283.000000	28.319265
1218.000000	1282.000000	28.281631
1219.000000	1281.000000	28.249030
1220.000000	1280.000000	28.223540
1221.000000	1279.000000	28.192470
1222.000000	1278.000000	28.152867
1223.000000	1277.000000	28.130112
1224.000000	1276.000000	28.109107
1225.000000	1275.000000	28.082195
1226.000000	1274.000000	28.069286
1227.000000	1273.000000	28.055282
1228.000000	1272.000000	28.033621
1229.000000	1271.000000	27.992596
1230.000000	1270.000000	27.970607
1231.000000	1269.000000	27.949165
1232.000000	1268.000000	27.927503
1233.000000	1267.000000	27.922799
1234.000000	1266.000000	27.902013
1235.000000	1265.000000	27.877398
1236.000000	1264.000000	27.836592
1237.000000	1263.000000	27.824996
1238.000000	1262.000000	27.795567
1239.000000	1261.000000	27.761215
1240.000000	1260.000000	27.726645
1241.000000	1259.000000	27.700061
1242.000000	1258.000000	27.676321
1243.000000	1257.000000	27.645252
1244.000000	1256.000000	27.598428
1245.000000	1255.000000	27.564952
1246.000000	1254.000000	27.544385
1247.000000	1253.000000	27.498874
1248.000000	1252.000000	27.454239
1249.000000	1251.000000	27.422732
1250.000000	1250.000000	27.383895
1251.000000	1249.000000	27.362890
1252.000000	1248.000000	27.329633
1253.000000	1247.000000	27.273948
1254.000000	1246.000000	27.231501
1255.000000	1245.000000	27.189820
1256.000000	1244.000000	27.133041
1257.000000	1243.000000	27.078122
1258.000000	1242.000000	27.049788
1259.000000	1241.000000	26.998260
1260.000000	1240.000000	26.939731
1261.000000	1239.000000	26.889845
1262.000000	1238.000000	26.845648
1263.000000	1237.000000	26.783180
1264.000000	1236.000000	26.730340
1265.000000	1235.000000	26.677937
1266.000000	1234.000000	26.614704
1267.000000	1233.000000	26.557269
1268.000000	1232.000000	26.497099
1269.000000	1231.000000	26.426865
1270.000000	1230.000000	26.366913
1271.000000	1229.000000	26.306853
1272.000000	1228.000000	26.246355
1273.000000	1227.000000	26.182356
1274.000000	1226.000000	26.104572
1275.000000	1225.000000	26.041011
1276.000000	1224.000000	25.969464
1277.000000	1223.000000	25.906668
1278.000000	1222.000000	25.829432
1279.000000	1221.000000	25.753180
1280.000000	1220.000000	25.700230
1281.000000	1219.000000	25.635466
1282.000000	1218.000000	25.584376
1283.000000	1217.000000	25.515016
1284.000000	1216.000000	25.438874
1285.000000	1215.000000	25.387347
1286.000000	1214.000000	25.329474
1287.000000	1213.000000	25.279369
1288.000000	1212.000000	25.228170
1289.000000	1211.000000	25.169422
1290.000000	1210.000000	25.132445
1291.000000	1209.000000	25.079823
1292.000000	1208.000000	25.039017
1293.000000	1207.000000	25.014402
1294.000000	1206.000000	25.010683
1295.000000	1205.000000	24.979504
1296.000000	1204.000000	24.969329
1297.000000	1203.000000	24.966485
1298.000000	1202.000000	24.922178
1299.000000	1201.000000	24.903252
1300.000000	1200.000000	24.895813
1301.000000	1199.000000	24.861570
1302.000000	1198.000000	24.810918
1303.000000	1197.000000	24.735651
1304.000000	1196.000000	24.652288
1305.000000	1195.000000	24.542013
1306.000000	1194.000000	24.405810
1307.000000	1193.000000	24.217643
1308.000000	1192.000000	24.017988
1309.000000	1191.000000	23.798641
1310.000000	1190.000000	23.600189
1311.000000	1189.000000	23.419570
1312.000000	1188.000000	23.264113
1313.000000	1187.000000	23.207772
1314.000000	1186.000000	23.191581
1315.000000	1185.000000	23.223744
1316.000000	1184.000000	23.320673
1317.000000	1183.000000	23.475145
1318.000000	1182.000000	23.690007
1319.000000	1181.000000	23.903884
1320.000000	1180.000000	24.134936
1321.000000	1179.000000	24.364020
1322.000000	1178.000000	24.533699
1323.000000	1177.000000	24.713881
1324.000000	1176.000000	24.861023
1325.000000	1175.000000	24.997117
1326.000000	1174.000000	25.134414
1327.000000	1173.000000	25.261537
1328.000000	1172.000000	25.395989
1329.000000	1171.000000	25.547508
1330.000000	1170.000000	25.707998
1331.000000	1169.000000	25.871988
1332.000000	1168.000000	26.047903
1333.000000	1167.000000	26.188482
1334.000000	1166.000000	26.348315
1335.000000	1165.000000	26.515697
1336.000000	1164.000000	26.702115
1337.000000	1163.000000	26.889954
1338.000000	1162.000000	27.062369
1339.000000	1161.000000	27.213669
1340.000000	1160.000000	27.348887
1341.000000	1159.000000	27.522286
1342.000000	1158.000000	27.675884
1343.000000	1157.000000	27.801912
1344.000000	1156.000000	27.918095
1345.000000	1155.000000	27.960870
1346.000000	1154.000000	28.019399
1347.000000	1153.000000	28.065019
1348.000000	1152.000000	28.081210
1349.000000	1151.000000	28.076615
1350.000000	1150.000000	28.056267
1351.000000	1149.000000	28.046859
1352.000000	1148.000000	28.073880
1353.000000	1147.000000	28.102215
1354.000000	1146.000000	28.140067
1355.000000	1145.000000	28.213365
1356.000000	1144.000000	28.313466
1357.000000	1143.000000	28.421553
1358.000000	1142.000000	28.573072
1359.000000	1141.000000	28.699976
1360.000000	1140.000000	28.852808
1361.000000	1139.000000	29.000170
1362.000000	1138.000000	29.132653
1363.000000	1137.000000	29.284172
1364.000000	1136.000000	29.431205
1365.000000	1135.000000	29.593008
1366.000000	1134.000000	29.695406
1367.000000	1133.000000	29.805025
1368.000000	1132.000000	29.908955
1369.000000	1131.000000	30.035202
1370.000000	1130.000000	30.125567
1371.000000	1129.000000	30.191316
1372.000000	1128.000000	30.243390
1373.000000	1127.000000	30.285619
1374.000000	1126.000000	30.345132
1375.000000	1125.000000	30.385938
1376.000000	1124.000000	30.403114
1377.000000	1123.000000	30.419524
1378.000000	1122.000000	30.431339
1379.000000	1121.000000	30.452016
1380.000000	1120.000000	30.456501
1381.000000	1119.000000	30.476303
1382.000000	1118.000000	30.476193
1383.000000	1117.000000	30.482320
1384.000000	1116.000000	30.463831
1385.000000	1115.000000	30.453001
1386.000000	1114.000000	30.438997
1387.000000	1113.000000	30.438232
1388.000000	1112.000000	30.409788
1389.000000	1111.000000	30.426088
1390.000000	1110.000000	30.406177
1391.000000	1109.000000	30.387032
1392.000000	1108.000000	30.386923
1393.000000	1107.000000	30.374998
1394.000000	1106.000000	30.357385
1395.000000	1105.000000	30.325769
1396.000000	1104.000000	30.311218
1397.000000	1103.000000	30.314282
1398.000000	1102.000000	30.292839
1399.000000	1101.000000	30.271178
1400.000000	1100.000000	30.252689
1401.000000	1099.000000	30.236498
1402.000000	1098.000000	30.210133
1403.000000	1097.000000	30.216259
1404.000000	1096.000000	30.179501
1405.000000	1095.000000	30.152151
1406.000000	1094.000000	30.121628
1407.000000	1093.000000	30.094388
1408.000000	1092.000000	30.069116
1409.000000	1091.000000	30.024700
1410.000000	1090.000000	30.008837
1411.000000	1089.000000	29.988160
1412.000000	1088.000000	29.962451
1413.000000	1087.000000	29.942759
1414.000000	1086.000000	29.917269
1415.000000	1085.000000	29.883027
1416.000000	1084.000000	29.855021
1417.000000	1083.000000	29.825045
1418.000000	1082.000000	29.792334
1419.000000	1081.000000	29.762578
1420.000000	1080.000000	29.724288
1421.000000	1079.000000	29.708097
1422.000000	1078.000000	29.692562
1423.000000	1077.000000	29.666196
1424.000000	1076.000000	29.635236
1425.000000	1075.000000	29.604604
1426.000000	1074.000000	29.587975
1427.000000	1073.000000	29.571675
1428.000000	1072.000000	29.557562
1429.000000	1071.000000	29.523101
1430.000000	1070.000000	29.488093
1431.000000	1069.000000	29.467307
1432.000000	1068.000000	29.432737
1433.000000	1067.000000	29.404621
1434.000000	1066.000000	29.384163
1435.000000	1065.000000	29.379240
1436.000000	1064.000000	29.373005
1437.000000	1063.000000	29.342373
1438.000000	1062.000000	29.321696
1439.000000	1061.000000	29.289423
1440.000000	1060.000000	29.283187
1441.000000	1059.000000	29.270387
1442.000000	1058.000000	29.241725
1443.000000	1057.000000	29.227503
1444.000000	1056.000000	29.195777
1445.000000	1055.000000	29.171928
1446.000000	1054.000000	29.150485
1447.000000	1053.000000	29.135169
1448.000000	1052.000000	29.126417
1449.000000	1051.000000	29.102896
1450.000000	1050.000000	29.093816
1451.000000	1049.000000	29.074015
1452.000000	1048.000000	29.035287
1453.000000	1047.000000	29.015923
1454.000000	1046.000000	29.003123
1455.000000	1045.000000	28.984744
1456.000000	1044.000000	28.968444
1457.000000	1043.000000	28.958160
1458.000000	1042.000000	28.940328
1459.000000	1041.000000	28.927637
1460.000000	1040.000000	28.910681
1461.000000	1039.000000	28.884972
1462.000000	1038.000000	28.865061
1463.000000	1037.000000	28.834319
1464.000000	1036.000000	28.806860
1465.000000	1035.000000	28.786183
1466.000000	1034.000000	28.759052
1467.000000	1033.000000	28.739251
1468.000000	1032.000000	28.713761
1469.000000	1031.000000	28.685207
1470.000000	1030.000000	28.645386
1471.000000	1029.000000	28.602392
1472.000000	1028.000000	28.577230
1473.000000	1027.000000	28.548239
1474.000000	1026.000000	28.518919
1475.000000	1025.000000	28.484896
1476.000000	1024.000000	28.427570
1477.000000	1023.000000	28.395079
1478.000000	1022.000000	28.374183
1479.000000	1021.000000	28.328017
1480.000000	1020.000000	28.293227
1481.000000	1019.000000	28.269706
1482.000000	1018.000000	28.232401
1483.000000	1017.000000	28.202316
1484.000000	1016.000000	28.185797
1485.000000	1015.000000	28.152101
1486.000000	1014.000000	28.127815
1487.000000	1013.000000	28.102215
1488.000000	1012.000000	28.074756
1489.000000	1011.000000	28.067645
1490.000000	1010.000000	28.062940
1491.000000	1009.000000	28.052876
1492.000000	1008.000000	28.038763
1493.000000	1007.000000	28.014805
1494.000000	1006.000000	28.013820
1495.000000	1005.000000	28.017211
1496.000000	1004.000000	28.020931
1497.000000	1003.000000	28.012945
1498.000000	1002.000000	27.999707
1499.000000	1001.000000	27.982203
1500.000000	1000.000000	27.987345
1501.000000	999.000000	27.983735
1502.000000	998.000000	27.967981
1503.000000	997.000000	27.964481
1504.000000	996.000000	27.967434
1505.000000	995.000000	27.970169
1506.000000	994.000000	27.989314
1507.000000	993.000000	27.981547
1508.000000	992.000000	27.969622
1509.000000	991.000000	27.980891
1510.000000	990.000000	27.987564
1511.000000	989.000000	27.973233
1512.000000	988.000000	27.974764
1513.000000	987.000000	27.976296
1514.000000	986.000000	27.983516
1515.000000	985.000000	28.001348
1516.000000	984.000000	28.006381
1517.000000	983.000000	28.021259
1518.000000	982.000000	28.026182
1519.000000	981.000000	28.004302
1520.000000	980.000000	28.014367
1521.000000	979.000000	28.028480
1522.000000	978.000000	28.053751
1523.000000	977.000000	28.047296
1524.000000	976.000000	28.037888
1525.000000	975.000000	28.034168
1526.000000	974.000000	28.049265
1527.000000	973.000000	28.044452
1528.000000	972.000000	28.063050
1529.000000	971.000000	28.049375
1530.000000	970.000000	28.034825
1531.000000	969.000000	28.061299
1532.000000	968.000000	28.063597
1533.000000	967.000000	28.066441
1534.000000	966.000000	28.049047
1535.000000	965.000000	28.046421
1536.000000	964.000000	28.062831
1537.000000	963.000000	28.040404
1538.000000	962.000000	28.052985
1539.000000	961.000000	28.052766
1540.000000	960.000000	28.042483
1541.000000	959.000000	28.009663
1542.000000	958.000000	28.009335
1543.000000	957.000000	28.028589
1544.000000	956.000000	28.017321
1545.000000	955.000000	28.007147
1546.000000	954.000000	28.005943
1547.000000	953.000000	27.969075
1548.000000	952.000000	27.966778
1549.000000	951.000000	27.983626
1550.000000	950.000000	27.960214
1551.000000	949.000000	27.960980
1552.000000	948.000000	27.933411
1553.000000	947.000000	27.915469
1554.000000	946.000000	27.907593
1555.000000	945.000000	27.912516
1556.000000	944.000000	27.892933
1557.000000	943.000000	27.885713
1558.000000	942.000000	27.891511
1559.000000	941.000000	27.878273
1560.000000	940.000000	27.902998
1561.000000	939.000000	27.886916
1562.000000	938.000000	27.865583
1563.000000	937.000000	27.866896
1564.000000	936.000000	27.863286
1565.000000	935.000000	27.882431
1566.000000	934.000000	27.898622
1567.000000	933.000000	27.893480
1568.000000	932.000000	27.859675
1569.000000	931.000000	27.891183
1570.000000	930.000000	27.899825
1571.000000	929.000000	27.864817
1572.000000	928.000000	27.856722
1573.000000	927.000000	27.897528
1574.000000	926.000000	27.869631
1575.000000	925.000000	27.884837
1576.000000	924.000000	27.867443
1577.000000	923.000000	27.888119
1578.000000	922.000000	27.877508
1579.000000	921.000000	27.874116
1580.000000	920.000000	27.859238
1581.000000	919.000000	27.858472
1582.000000	918.000000	27.847423
1583.000000	917.000000	27.830903
1584.000000	916.000000	27.818213
1585.000000	915.000000	27.792394
1586.000000	914.000000	27.809680
1587.000000	913.000000	27.799615
1588.000000	912.000000	27.762856
1589.000000	911.000000	27.754980
1590.000000	910.000000	27.727739
1591.000000	909.000000	27.671398
1592.000000	908.000000	27.662318
1593.000000	907.000000	27.645252
1594.000000	906.000000	27.628842
1595.000000	905.000000	27.597663
1596.000000	904.000000	27.584972
1597.000000	903.000000	27.595256
1598.000000	902.000000	27.577205
1599.000000	901.000000	27.546463
1600.000000	900.000000	27.544932
1601.000000	899.000000	27.497890
1602.000000	898.000000	27.498874
1603.000000	897.000000	27.480714
1604.000000	896.000000	27.412120
1605.000000	895.000000	27.368907
1606.000000	894.000000	27.369564
1607.000000	893.000000	27.298016
1608.000000	892.000000	27.245942
1609.000000	891.000000	27.237299
1610.000000	890.000000	27.192555
1611.000000	889.000000	27.115647
1612.000000	888.000000	27.025501
1613.000000	887.000000	26.950015
1614.000000	886.000000	26.899363
1615.000000	885.000000	26.859870
1616.000000	884.000000	26.779679
1617.000000	883.000000	26.666450
1618.000000	882.000000	26.529263
1619.000000	881.000000	26.431459
1620.000000	880.000000	26.270204
1621.000000	879.000000	26.184325
1622.000000	878.000000	26.095383
1623.000000	877.000000	25.990031
1624.000000	876.000000	25.838512
1625.000000	875.000000	25.667520
1626.000000	874.000000	25.507686
1627.000000	873.000000	25.341836
1628.000000	872.000000	25.206946
1629.000000	871.000000	24.974362
1630.000000	870.000000	24.815294
1631.000000	869.000000	24.627345
1632.000000	868.000000	24.490814
1633.000000	867.000000	24.291050
1634.000000	866.000000	24.140953
1635.000000	865.000000	23.942283
1636.000000	864.000000	23.765821
1637.000000	863.000000	23.551944
1638.000000	862.000000	23.311483
1639.000000	861.000000	23.083494
1640.000000	860.000000	22.933178
1641.000000	859.000000	22.714378
1642.000000	858.000000	23.052533
1643.000000	857.000000	23.333800
1644.000000	856.000000	22.834700
1645.000000	855.000000	22.989100
1646.000000	854.000000	23.471400
1647.000000	853.000000	23.289300
1648.000000	852.000000	23.260500
1649.000000	851.000000	23.107300
1650.000000	850.000000	23.121300
1651.000000	849.000000	23.223200
1652.000000	848.000000	23.271700
1653.000000	847.000000	23.361500
1654.000000	846.000000	23.303800
1655.000000	845.000000	23.262100
1656.000000	844.000000	23.170600
1657.000000	843.000000	23.172300
1658.000000	842.000000	23.293300
1659.000000	841.000000	23.397300
1660.000000	840.000000	23.212600
1661.000000	839.000000	23.255000
1662.000000	838.000000	23.295800
1663.000000	837.000000	23.170300
1664.000000	836.000000	23.221600
1665.000000	835.000000	23.171700
1666.000000	834.000000	23.212600
1667.000000	833.000000	23.095600
1668.000000	832.000000	23.086200
1669.000000	831.000000	23.085800
1670.000000	830.000000	23.200700
1671.000000	829.000000	23.119500
1672.000000	828.000000	23.013100
1673.000000	827.000000	22.906900
1674.000000	826.000000	22.914200
1675.000000	825.000000	22.881800
1676.000000	824.000000	22.870900
1677.000000	823.000000	22.834100
1678.000000	822.000000	22.882700
1679.000000	821.000000	22.882200
1680.000000	820.000000	22.853800
1681.000000	819.000000	22.854300
1682.000000	818.000000	22.806800
1683.000000	817.000000	22.742300
1684.000000	816.000000	22.655100
1685.000000	815.000000	22.638900
1686.000000	814.000000	22.699400
1687.000000	813.000000	22.599700
1688.000000	812.000000	22.552300
1689.000000	811.000000	22.451400
1690.000000	810.000000	22.420000
1691.000000	809.000000	22.395600
1692.000000	808.000000	22.370300
1693.000000	807.000000	22.212200
1694.000000	806.000000	22.141600
1695.000000	805.000000	22.122300
1696.000000	804.000000	22.062700
1697.000000	803.000000	22.011600
1698.000000	802.000000	21.952500
1699.000000	801.000000	21.867200
1700.000000	800.000000	21.839100
1701.000000	799.000000	21.835200
1702.000000	798.000000	21.750100
1703.000000	797.000000	21.665900
1704.000000	796.000000	21.669700
1705.000000	795.000000	21.617300
1706.000000	794.000000	21.545900
1707.000000	793.000000	21.540600
1708.000000	792.000000	21.505400
1709.000000	791.000000	21.459400
1710.000000	790.000000	21.368000
1711.000000	789.000000	21.366500
1712.000000	788.000000	21.344100
1713.000000	787.000000	21.296500
1714.000000	786.000000	21.274400
1715.000000	785.000000	21.273100
1716.000000	784.000000	21.295100
1717.000000	783.000000	21.261100
1718.000000	782.000000	21.195700
1719.000000	781.000000	21.208500
1720.000000	780.000000	21.228500
1721.000000	779.000000	21.239500
1722.000000	778.000000	21.241100
1723.000000	777.000000	21.196100
1724.000000	776.000000	21.201700
1725.000000	775.000000	21.171400
1726.000000	774.000000	21.155200
1727.000000	773.000000	21.193100
1728.000000	772.000000	21.146100
1729.000000	771.000000	21.150700
1730.000000	770.000000	21.143100
1731.000000	769.000000	21.077000
1732.000000	768.000000	21.053600
1733.000000	767.000000	21.060500
1734.000000	766.000000	21.046100
1735.000000	765.000000	21.014200
1736.000000	764.000000	20.981600
1737.000000	763.000000	20.952100
1738.000000	762.000000	20.924900
1739.000000	761.000000	20.877000
1740.000000	760.000000	20.831300
1741.000000	759.000000	20.849600
1742.000000	758.000000	20.857800
1743.000000	757.000000	20.850200
1744.000000	756.000000	20.825400
1745.000000	755.000000	20.808000
1746.000000	754.000000	20.783500
1747.000000	753.000000	20.752900
1748.000000	752.000000	20.730800
1749.000000	751.000000	20.706900
1750.000000	750.000000	20.707100
1751.000000	749.000000	20.682900
1752.000000	748.000000	20.650600
1753.000000	747.000000	20.659200
1754.000000	746.000000	20.637700
1755.000000	745.000000	20.617900
1756.000000	744.000000	20.626000
1757.000000	743.000000	20.613700
1758.000000	742.000000	20.596200
1759.000000	741.000000	20.629600
1760.000000	740.000000	20.615700
1761.000000	739.000000	20.565000
1762.000000	738.000000	20.583900
1763.000000	737.000000	20.578100
1764.000000	736.000000	20.520600
1765.000000	735.000000	20.500500
1766.000000	734.000000	20.497600
1767.000000	733.000000	20.481000
1768.000000	732.000000	20.458600
1769.000000	731.000000	20.438000
1770.000000	730.000000	20.403400
1771.000000	729.000000	20.394800
1772.000000	728.000000	20.392900
1773.000000	727.000000	20.347200
1774.000000	726.000000	20.315300
1775.000000	725.000000	20.276800
1776.000000	724.000000	20.253400
1777.000000	723.000000	20.231100
1778.000000	722.000000	20.174200
1779.000000	721.000000	20.138900
1780.000000	720.000000	20.083600
1781.000000	719.000000	20.038300
1782.000000	718.000000	20.012200
1783.000000	717.000000	19.926200
1784.000000	716.000000	19.856600
1785.000000	715.000000	19.803400
1786.000000	714.000000	19.770200
1787.000000	713.000000	19.732300
1788.000000	712.000000	19.687400
1789.000000	711.000000	19.657800
1790.000000	710.000000	19.611600
1791.000000	709.000000	19.542100
1792.000000	708.000000	19.488200
1793.000000	707.000000	19.433000
1794.000000	706.000000	19.380300
1795.000000	705.000000	19.336900
1796.000000	704.000000	19.277600
1797.000000	703.000000	19.216200
1798.000000	702.000000	19.185600
1799.000000	701.000000	19.135600
1800.000000	700.000000	19.088000
1801.000000	699.000000	19.025000
1802.000000	698.000000	19.015100
1803.000000	697.000000	19.004100
1804.000000	696.000000	18.959800
1805.000000	695.000000	18.934000
1806.000000	694.000000	18.884800
1807.000000	693.000000	18.859300
1808.000000	692.000000	18.815900
1809.000000	691.000000	18.796800
1810.000000	690.000000	18.780000
1811.000000	689.000000	18.783100
1812.000000	688.000000	18.768400
1813.000000	687.000000	18.755500
1814.000000	686.000000	18.734300
1815.000000	685.000000	18.745400
1816.000000	684.000000	18.745800
1817.000000	683.000000	18.727100
1818.000000	682.000000	18.724500
1819.000000	681.000000	18.704500
1820.000000	680.000000	18.710200
1821.000000	679.000000	18.690200
1822.000000	678.000000	18.649600
1823.000000	677.000000	18.619900
1824.000000	676.000000	18.604900
1825.000000	675.000000	18.577400
1826.000000	674.000000	18.540900
1827.000000	673.000000	18.504100
1828.000000	672.000000	18.440700
1829.000000	671.000000	18.404900
1830.000000	670.000000	18.332100
1831.000000	669.000000	18.264800
1832.000000	668.000000	18.200600
1833.000000	667.000000	18.129200
1834.000000	666.000000	18.043900
1835.000000	665.000000	17.965400
1836.000000	664.000000	17.874800
1837.000000	663.000000	17.773000
1838.000000	662.000000	17.678600
1839.000000	661.000000	17.577000
1840.000000	660.000000	17.454800
1841.000000	659.000000	17.343700
1842.000000	658.000000	17.230600
1843.000000	657.000000	17.102100
1844.000000	656.000000	16.966400
1845.000000	655.000000	16.833700
1846.000000	654.000000	16.695800
1847.000000	653.000000	16.546000
1848.000000	652.000000	16.414600
1849.000000	651.000000	16.258100
1850.000000	650.000000	16.126100
1851.000000	649.000000	15.986700
1852.000000	648.000000	15.862800
1853.000000	647.000000	15.763300
1854.000000	646.000000	15.649900
1855.000000	645.000000	15.555900
1856.000000	644.000000	15.466200
1857.000000	643.000000	15.403200
1858.000000	642.000000	15.350900
1859.000000	641.000000	15.320800
1860.000000	640.000000	15.294300
1861.000000	639.000000	15.295300
1862.000000	638.000000	15.325100
1863.000000	637.000000	15.349900
1864.000000	636.000000	15.416500
1865.000000	635.000000	15.484900
1866.000000	634.000000	15.608200
1867.000000	633.000000	15.721300
1868.000000	632.000000	15.872400
1869.000000	631.000000	16.026200
1870.000000	630.000000	16.184200
1871.000000	629.000000	16.354100
1872.000000	628.000000	16.540900
1873.000000	627.000000	16.743200
1874.000000	626.000000	16.932300
1875.000000	625.000000	17.115000
1876.000000	624.000000	17.292500
1877.000000	623.000000	17.469600
1878.000000	622.000000	17.680300
1879.000000	621.000000	17.859100
1880.000000	620.000000	18.030300
1881.000000	619.000000	18.229400
1882.000000	618.000000	18.427000
1883.000000	617.000000	18.603900
1884.000000	616.000000	18.809300
1885.000000	615.000000	19.000700
1886.000000	614.000000	19.209800
1887.000000	613.000000	19.421700
1888.000000	612.000000	19.649800
1889.000000	611.000000	19.886800
1890.000000	610.000000	20.125800
1891.000000	609.000000	20.362100
1892.000000	608.000000	20.592000
1893.000000	607.000000	20.827400
1894.000000	606.000000	21.064900
1895.000000	605.000000	21.260400
1896.000000	604.000000	21.443300
1897.000000	603.000000	21.639700
1898.000000	602.000000	21.796400
1899.000000	601.000000	21.930600
1900.000000	600.000000	22.048900
1901.000000	599.000000	22.192400
1902.000000	598.000000	22.288600
1903.000000	597.000000	22.394700
1904.000000	596.000000	22.489800
1905.000000	595.000000	22.525900
1906.000000	594.000000	22.593000
1907.000000	593.000000	22.633200
1908.000000	592.000000	22.680500
1909.000000	591.000000	22.762300
1910.000000	590.000000	22.822600
1911.000000	589.000000	22.861600
1912.000000	588.000000	22.910500
1913.000000	587.000000	22.981000
1914.000000	586.000000	23.036500
1915.000000	585.000000	23.092600
1916.000000	584.000000	23.169400
1917.000000	583.000000	23.225000
1918.000000	582.000000	23.300300
1919.000000	581.000000	23.380600
1920.000000	580.000000	23.428700
1921.000000	579.000000	23.486200
1922.000000	578.000000	23.545800
1923.000000	577.000000	23.594400
1924.000000	576.000000	23.621500
1925.000000	575.000000	23.641500
1926.000000	574.000000	23.687000
1927.000000	573.000000	23.704200
1928.000000	572.000000	23.735600
1929.000000	571.000000	23.720900
1930.000000	570.000000	23.712000
1931.000000	569.000000	23.700200
1932.000000	568.000000	23.666900
1933.000000	567.000000	23.630100
1934.000000	566.000000	23.617200
1935.000000	565.000000	23.588800
1936.000000	564.000000	23.559000
1937.000000	563.000000	23.520500
1938.000000	562.000000	23.487600
1939.000000	561.000000	23.457900
1940.000000	560.000000	23.509500
1941.000000	559.000000	24.123000
1942.000000	558.000000	24.108500
1943.000000	557.000000	24.061900
1944.000000	556.000000	24.009100
1945.000000	555.000000	23.960900
1946.000000	554.000000	23.865900
1947.000000	553.000000	23.791500
1948.000000	552.000000	23.676900
1949.000000	551.000000	23.538900
1950.000000	550.000000	23.401100
1951.000000	549.000000	23.235600
1952.000000	548.000000	23.037500
1953.000000	547.000000	22.814800
1954.000000	546.000000	22.584500
1955.000000	545.000000	22.334600
1956.000000	544.000000	22.075100
1957.000000	543.000000	21.777600
1958.000000	542.000000	21.480000
1959.000000	541.000000	21.163900
1960.000000	540.000000	20.845400
1961.000000	539.000000	20.519400
1962.000000	538.000000	20.183000
1963.000000	537.000000	19.831400
1964.000000	536.000000	19.463600
1965.000000	535.000000	19.120300
1966.000000	534.000000	18.770900
1967.000000	533.000000	18.414100
1968.000000	532.000000	18.068500
1969.000000	531.000000	17.732100
1970.000000	530.000000	17.410200
1971.000000	529.000000	17.094700
1972.000000	528.000000	16.793300
1973.000000	527.000000	16.502400
1974.000000	526.000000	16.220900
1975.000000	525.000000	15.958000
1976.000000	524.000000	15.699900
1977.000000	523.000000	15.454500
1978.000000	522.000000	15.208400
1979.000000	521.000000	14.971900
1980.000000	520.000000	14.737200
1981.000000	519.000000	14.511300
1982.000000	518.000000	14.278200
1983.000000	517.000000	14.063700
1984.000000	516.000000	13.845600
1985.000000	515.000000	13.620600
1986.000000	514.000000	13.404500
1987.000000	513.000000	13.183800
1988.000000	512.000000	12.981100
1989.000000	511.000000	12.768300
1990.000000	510.000000	12.559000
1991.000000	509.000000	12.353800
1992.000000	508.000000	12.156500
1993.000000	507.000000	11.954200
1994.000000	506.000000	11.766700
1995.000000	505.000000	11.569000
1996.000000	504.000000	11.372700
1997.000000	503.000000	11.189600
1998.000000	502.000000	11.007000
1999.000000	501.000000	10.813400
2000.000000	500.000000	10.628300
2001.000000	499.000000	10.453400
2002.000000	498.000000	10.271000
2003.000000	497.000000	10.091500
2004.000000	496.000000	9.907900
2005.000000	495.000000	9.743100
2006.000000	494.000000	9.556000
2007.000000	493.000000	9.382300
2008.000000	492.000000	9.210300
2009.000000	491.000000	9.049100
2010.000000	490.000000	8.892600
2011.000000	489.000000	8.734300
2012.000000	488.000000	8.585400
2013.000000	487.000000	8.439300
2014.000000	486.000000	8.302500
2015.000000	485.000000	8.166400
2016.000000	484.000000	8.041800
2017.000000	483.000000	7.924400
2018.000000	482.000000	7.824100
2019.000000	481.000000	7.731200
2020.000000	480.000000	7.627800
2021.000000	479.000000	7.532600
2022.000000	478.000000	7.441100
2023.000000	477.000000	7.348700
2024.000000	476.000000	7.255800
2025.000000	475.000000	7.168700
2026.000000	474.000000	7.069900
2027.000000	473.000000	6.969000
2028.000000	472.000000	6.864800
2029.000000	471.000000	6.755100
2030.000000	470.000000	6.645300
2031.000000	469.000000	6.541500
2032.000000	468.000000	6.429800
2033.000000	467.000000	6.318100
2034.000000	466.000000	6.206300
2035.000000	465.000000	6.083600
2036.000000	464.000000	5.964400
2037.000000	463.000000	5.853600
2038.000000	462.000000	5.751100
2039.000000	461.000000	5.656900
2040.000000	460.000000	5.563300
2041.000000	459.000000	5.468600
2042.000000	458.000000	5.385100
2043.000000	457.000000	5.311500
2044.000000	456.000000	5.247000
2045.000000	455.000000	5.184100
2046.000000	454.000000	5.134300
2047.000000	453.000000	5.083100
2048.000000	452.000000	5.038500
2049.000000	451.000000	5.010700
2050.000000	450.000000	4.988100
2051.000000	449.000000	4.977000
2052.000000	448.000000	4.972500
2053.000000	447.000000	4.962400
2054.000000	446.000000	4.953400
2055.000000	445.000000	4.951700
2056.000000	444.000000	4.963200
2057.000000	443.000000	4.968500
2058.000000	442.000000	4.972300
2059.000000	441.000000	4.967700
2060.000000	440.000000	4.973200
2061.000000	439.000000	4.980000
2062.000000	438.000000	4.984500
2063.000000	437.000000	4.983200
2064.000000	436.000000	4.969700
2065.000000	435.000000	4.967400
2066.000000	434.000000	4.963900
2067.000000	433.000000	4.955300
2068.000000	432.000000	4.945700
2069.000000	431.000000	4.936800
2070.000000	430.000000	4.918600
2071.000000	429.000000	4.890800
2072.000000	428.000000	4.874500
2073.000000	427.000000	4.864100
2074.000000	426.000000	4.852900
2075.000000	425.000000	4.825700
2076.000000	424.000000	4.800800
2077.000000	423.000000	4.778900
2078.000000	422.000000	4.743000
2079.000000	421.000000	4.703700
2080.000000	420.000000	4.668400
2081.000000	419.000000	4.629400
2082.000000	418.000000	4.595300
2083.000000	417.000000	4.564900
2084.000000	416.000000	4.512700
2085.000000	415.000000	4.463000
2086.000000	414.000000	4.430700
2087.000000	413.000000	4.383100
2088.000000	412.000000	4.332400
2089.000000	411.000000	4.280900
2090.000000	410.000000	4.231300
2091.000000	409.000000	4.180900
2092.000000	408.000000	4.116100
2093.000000	407.000000	4.044000
2094.000000	406.000000	4.001900
2095.000000	405.000000	3.944100
2096.000000	404.000000	3.874700
2097.000000	403.000000	3.815100
2098.000000	402.000000	3.753000
2099.000000	401.000000	3.689000
2100.000000	400.000000	3.618300
2101.000000	399.000000	3.551000
2102.000000	398.000000	3.482400
2103.000000	397.000000	3.418300
2104.000000	396.000000	3.366000
2105.000000	395.000000	3.296500
2106.000000	394.000000	3.239400
2107.000000	393.000000	3.176800
2108.000000	392.000000	3.114100
2109.000000	391.000000	3.049900
2110.000000	390.000000	2.980300
2111.000000	389.000000	2.922500
2112.000000	388.000000	2.871500
2113.000000	387.000000	2.806800
2114.000000	386.000000	2.754700
2115.000000	385.000000	2.705100
2116.000000	384.000000	2.669500
2117.000000	383.000000	2.625000
2118.000000	382.000000	2.582600
2119.000000	381.000000	2.545600
2120.000000	380.000000	2.509500
2121.000000	379.000000	2.475200
2122.000000	378.000000	2.439900
2123.000000	377.000000	2.404700
2124.000000	376.000000	2.604500
2125.000000	375.000000	2.566400
2126.000000	374.000000	2.567500
2127.000000	373.000000	2.517600
2128.000000	372.000000	2.526900
2129.000000	371.000000	2.570400
2130.000000	370.000000	2.504800
2131.000000	369.000000	2.508300
2132.000000	368.000000	2.524600
2133.000000	367.000000	2.501300
2134.000000	366.000000	2.559400
2135.000000	365.000000	2.556300
2136.000000	364.000000	2.549400
2137.000000	363.000000	2.506600
2138.000000	362.000000	2.536500
2139.000000	361.000000	2.522500
2140.000000	360.000000	2.495900
2141.000000	359.000000	2.566800
2142.000000	358.000000	2.535500
2143.000000	357.000000	2.528600
2144.000000	356.000000	2.497900
2145.000000	355.000000	2.513200
2146.000000	354.000000	2.507000
2147.000000	353.000000	2.530400
2148.000000	352.000000	2.546300
2149.000000	351.000000	2.525400
2150.000000	350.000000	2.401700
2151.000000	349.000000	2.488400
2152.000000	348.000000	2.578100
2153.000000	347.000000	2.444200
2154.000000	346.000000	2.512300
2155.000000	345.000000	2.550700
2156.000000	344.000000	2.639500
2157.000000	343.000000	2.667300
2158.000000	342.000000	2.505600
2159.000000	341.000000	2.544300
2160.000000	340.000000	2.408300
2161.000000	339.000000	2.578700
2162.000000	338.000000	2.441200
2163.000000	337.000000	2.432800
2164.000000	336.000000	2.576900
2165.000000	335.000000	2.678800
2166.000000	334.000000	2.485000
2167.000000	333.000000	2.469000
2168.000000	332.000000	2.541100
2169.000000	331.000000	2.476100
2170.000000	330.000000	2.660500
2171.000000	329.000000	2.452000
2172.000000	328.000000	2.469900
2173.000000	327.000000	2.403100
2174.000000	326.000000	2.741200
2175.000000	325.000000	2.488900
2176.000000	324.000000	2.545700
2177.000000	323.000000	2.469600
2178.000000	322.000000	2.709200
2179.000000	321.000000	2.425200
2180.000000	320.000000	2.643000
2181.000000	319.000000	2.849200
2182.000000	318.000000	2.995000
2183.000000	317.000000	3.185100
2184.000000	316.000000	2.455500
2185.000000	315.000000	2.358800
2186.000000	314.000000	2.329400
2187.000000	313.000000	2.335400
2188.000000	312.000000	2.309600
2189.000000	311.000000	2.294500
2190.000000	310.000000	2.315500
2191.000000	309.000000	2.334200
2192.000000	308.000000	2.274800
2193.000000	307.000000	2.336600
2194.000000	306.000000	2.333600
2195.000000	305.000000	2.347300
2196.000000	304.000000	2.339300
2197.000000	303.000000	2.318100
2198.000000	302.000000	2.356900
2199.000000	301.000000	2.325900
2200.000000	300.000000	2.345900
2201.000000	299.000000	2.295400
2202.000000	298.000000	2.330900
2203.000000	297.000000	2.325700
2204.000000	296.000000	2.338200
2205.000000	295.000000	2.356000
2206.000000	294.000000	2.358100
2207.000000	293.000000	2.340700
2208.000000	292.000000	2.389400
2209.000000	291.000000	2.381900
2210.000000	290.000000	2.360900
2211.000000	289.000000	2.343500
2212.000000	288.000000	2.359900
2213.000000	287.000000	2.374100
2214.000000	286.000000	2.324600
2215.000000	285.000000	2.403100
2216.000000	284.000000	2.362900
2217.000000	283.000000	2.381800
2218.000000	282.000000	2.378700
2219.000000	281.000000	2.308000
2220.000000	280.000000	2.373900
2221.000000	279.000000	2.421200
2222.000000	278.000000	2.418600
2223.000000	277.000000	2.372300
2224.000000	276.000000	2.382600
2225.000000	275.000000	2.404200
2226.000000	274.000000	2.387100
2227.000000	273.000000	2.418000
2228.000000	272.000000	2.392000
2229.000000	271.000000	2.388200
2230.000000	270.000000	2.420900
2231.000000	269.000000	2.435500
2232.000000	268.000000	2.442700
2233.000000	267.000000	2.387200
2234.000000	266.000000	2.445800
2235.000000	265.000000	2.423700
2236.000000	264.000000	2.435700
2237.000000	263.000000	2.444000
2238.000000	262.000000	2.477200
2239.000000	261.000000	2.520000
2240.000000	260.000000	2.471900
2241.000000	259.000000	2.495900
2242.000000	258.000000	2.510500
2243.000000	257.000000	2.509600
2244.000000	256.000000	2.480200
2245.000000	255.000000	2.515000
2246.000000	254.000000	2.480500
2247.000000	253.000000	2.502400
2248.000000	252.000000	2.548100
2249.000000	251.000000	2.534300
2250.000000	250.000000	2.514300
