PE UV       SUBTECH     SPECTRUM    ASCII       PEDS        4.00        
   -1
CICIMAUCR0014-3.Sample.ASC
24/04/04
11:17:51.00
24/04/04
11:17:51.00
Vinicio Soto Monge
C. cupreomarginata
250,000000
1
Lambda 1050
1050L1511233
PerkinElmer UV WinLab 6.3.2.0749 / 2.02.05 Lambda 900 UV/VIS/NIR, Aug  7 2015 09:38:08

0
0
3350/servo 860,8/2
0
0
UV/VIS
1
1
1
DoubleDePol,CommonBeamDepol,RBeamAtt,SBeamAtt,60mm sphere, WB InGaAs Detector
0
0
0
0
Program
Program
3350/servo 860,8/2
3350/0,2 860,8/0,2
3350/0,2 860,8/0,2
0
15.00
 
 
 
0
 
860,8
319,2
860,8
Front
100
on
S:100 R:100
0
0
0
0
 
0
 
 
 
0
 
 
0
0
0
0
0
 
 
 
 
0
0


0
0
#HDR
-1
-1
#GR
nm
%R
1.0
0.0
2500,000000
-1,000000
2251
8
67,923300
5,031600
#DATA
250.000000	2250.000000	5.578233
251.000000	2249.000000	5.579867
252.000000	2248.000000	5.576033
253.000000	2247.000000	5.564767
254.000000	2246.000000	5.566800
255.000000	2245.000000	5.556100
256.000000	2244.000000	5.530100
257.000000	2243.000000	5.519167
258.000000	2242.000000	5.534633
259.000000	2241.000000	5.516567
260.000000	2240.000000	5.494400
261.000000	2239.000000	5.479533
262.000000	2238.000000	5.432767
263.000000	2237.000000	5.410700
264.000000	2236.000000	5.399033
265.000000	2235.000000	5.387233
266.000000	2234.000000	5.366000
267.000000	2233.000000	5.351300
268.000000	2232.000000	5.361533
269.000000	2231.000000	5.318100
270.000000	2230.000000	5.301667
271.000000	2229.000000	5.315567
272.000000	2228.000000	5.303100
273.000000	2227.000000	5.296233
274.000000	2226.000000	5.276800
275.000000	2225.000000	5.272967
276.000000	2224.000000	5.233733
277.000000	2223.000000	5.230800
278.000000	2222.000000	5.242800
279.000000	2221.000000	5.221367
280.000000	2220.000000	5.201833
281.000000	2219.000000	5.182800
282.000000	2218.000000	5.167533
283.000000	2217.000000	5.163933
284.000000	2216.000000	5.155867
285.000000	2215.000000	5.156867
286.000000	2214.000000	5.180567
287.000000	2213.000000	5.155500
288.000000	2212.000000	5.124067
289.000000	2211.000000	5.139033
290.000000	2210.000000	5.112033
291.000000	2209.000000	5.077100
292.000000	2208.000000	5.078733
293.000000	2207.000000	5.120833
294.000000	2206.000000	5.072833
295.000000	2205.000000	5.072567
296.000000	2204.000000	5.074900
297.000000	2203.000000	5.059033
298.000000	2202.000000	5.079500
299.000000	2201.000000	5.041267
300.000000	2200.000000	5.046300
301.000000	2199.000000	5.059167
302.000000	2198.000000	5.057200
303.000000	2197.000000	5.025767
304.000000	2196.000000	5.035500
305.000000	2195.000000	5.024233
306.000000	2194.000000	5.002733
307.000000	2193.000000	5.011367
308.000000	2192.000000	5.012500
309.000000	2191.000000	5.000200
310.000000	2190.000000	5.007033
311.000000	2189.000000	4.988100
312.000000	2188.000000	5.027867
313.000000	2187.000000	5.017300
314.000000	2186.000000	5.007733
315.000000	2185.000000	5.000400
316.000000	2184.000000	4.998333
317.000000	2183.000000	5.116067
318.000000	2182.000000	5.181833
319.000000	2181.000000	5.272733
320.000000	2180.000000	5.210967
321.000000	2179.000000	5.015367
322.000000	2178.000000	5.017400
323.000000	2177.000000	4.996600
324.000000	2176.000000	5.190100
325.000000	2175.000000	5.063467
326.000000	2174.000000	5.083767
327.000000	2173.000000	5.186433
328.000000	2172.000000	5.054333
329.000000	2171.000000	5.024267
330.000000	2170.000000	5.039133
331.000000	2169.000000	5.034733
332.000000	2168.000000	5.087333
333.000000	2167.000000	5.059633
334.000000	2166.000000	5.071700
335.000000	2165.000000	5.043700
336.000000	2164.000000	5.054100
337.000000	2163.000000	5.083700
338.000000	2162.000000	5.035433
339.000000	2161.000000	5.092367
340.000000	2160.000000	5.053200
341.000000	2159.000000	5.022533
342.000000	2158.000000	5.015433
343.000000	2157.000000	5.010233
344.000000	2156.000000	5.022200
345.000000	2155.000000	5.028667
346.000000	2154.000000	5.036400
347.000000	2153.000000	5.030500
348.000000	2152.000000	5.070867
349.000000	2151.000000	5.028067
350.000000	2150.000000	5.022100
351.000000	2149.000000	5.048567
352.000000	2148.000000	5.065800
353.000000	2147.000000	5.046267
354.000000	2146.000000	4.991900
355.000000	2145.000000	5.003367
356.000000	2144.000000	5.027933
357.000000	2143.000000	5.022533
358.000000	2142.000000	5.057867
359.000000	2141.000000	5.016167
360.000000	2140.000000	5.007100
361.000000	2139.000000	5.027667
362.000000	2138.000000	5.064567
363.000000	2137.000000	5.027633
364.000000	2136.000000	5.056633
365.000000	2135.000000	5.039300
366.000000	2134.000000	5.059467
367.000000	2133.000000	5.071200
368.000000	2132.000000	5.029567
369.000000	2131.000000	5.028067
370.000000	2130.000000	5.033133
371.000000	2129.000000	5.045967
372.000000	2128.000000	5.033933
373.000000	2127.000000	4.951767
374.000000	2126.000000	4.958633
375.000000	2125.000000	5.006200
376.000000	2124.000000	5.088800
377.000000	2123.000000	4.996067
378.000000	2122.000000	5.010567
379.000000	2121.000000	5.022400
380.000000	2120.000000	5.025033
381.000000	2119.000000	5.039467
382.000000	2118.000000	5.047667
383.000000	2117.000000	5.062333
384.000000	2116.000000	5.069500
385.000000	2115.000000	5.084500
386.000000	2114.000000	5.092667
387.000000	2113.000000	5.116333
388.000000	2112.000000	5.133000
389.000000	2111.000000	5.150200
390.000000	2110.000000	5.175167
391.000000	2109.000000	5.199700
392.000000	2108.000000	5.219600
393.000000	2107.000000	5.237767
394.000000	2106.000000	5.260867
395.000000	2105.000000	5.297067
396.000000	2104.000000	5.333433
397.000000	2103.000000	5.361033
398.000000	2102.000000	5.403467
399.000000	2101.000000	5.451300
400.000000	2100.000000	5.482933
401.000000	2099.000000	5.534300
402.000000	2098.000000	5.590867
403.000000	2097.000000	5.659100
404.000000	2096.000000	5.718400
405.000000	2095.000000	5.781500
406.000000	2094.000000	5.853667
407.000000	2093.000000	5.935767
408.000000	2092.000000	6.024733
409.000000	2091.000000	6.108967
410.000000	2090.000000	6.206833
411.000000	2089.000000	6.315400
412.000000	2088.000000	6.430267
413.000000	2087.000000	6.542900
414.000000	2086.000000	6.663400
415.000000	2085.000000	6.796767
416.000000	2084.000000	6.931267
417.000000	2083.000000	7.074633
418.000000	2082.000000	7.219867
419.000000	2081.000000	7.361800
420.000000	2080.000000	7.513333
421.000000	2079.000000	7.675333
422.000000	2078.000000	7.847767
423.000000	2077.000000	8.012667
424.000000	2076.000000	8.182867
425.000000	2075.000000	8.358967
426.000000	2074.000000	8.533767
427.000000	2073.000000	8.721733
428.000000	2072.000000	8.909200
429.000000	2071.000000	9.094900
430.000000	2070.000000	9.289333
431.000000	2069.000000	9.488100
432.000000	2068.000000	9.679867
433.000000	2067.000000	9.870800
434.000000	2066.000000	10.071167
435.000000	2065.000000	10.265967
436.000000	2064.000000	10.456133
437.000000	2063.000000	10.653500
438.000000	2062.000000	10.841133
439.000000	2061.000000	11.036500
440.000000	2060.000000	11.239800
441.000000	2059.000000	11.435967
442.000000	2058.000000	11.626667
443.000000	2057.000000	11.817833
444.000000	2056.000000	12.008900
445.000000	2055.000000	12.193400
446.000000	2054.000000	12.377667
447.000000	2053.000000	12.557867
448.000000	2052.000000	12.733933
449.000000	2051.000000	12.891333
450.000000	2050.000000	13.043067
451.000000	2049.000000	13.202800
452.000000	2048.000000	13.356967
453.000000	2047.000000	13.497633
454.000000	2046.000000	13.638800
455.000000	2045.000000	13.780600
456.000000	2044.000000	13.905900
457.000000	2043.000000	14.024233
458.000000	2042.000000	14.146300
459.000000	2041.000000	14.265633
460.000000	2040.000000	14.377033
461.000000	2039.000000	14.485300
462.000000	2038.000000	14.591267
463.000000	2037.000000	14.694433
464.000000	2036.000000	14.798233
465.000000	2035.000000	14.896067
466.000000	2034.000000	14.989100
467.000000	2033.000000	15.069033
468.000000	2032.000000	15.141233
469.000000	2031.000000	15.214033
470.000000	2030.000000	15.281333
471.000000	2029.000000	15.346567
472.000000	2028.000000	15.409000
473.000000	2027.000000	15.457600
474.000000	2026.000000	15.497700
475.000000	2025.000000	15.538833
476.000000	2024.000000	15.572867
477.000000	2023.000000	15.616200
478.000000	2022.000000	15.654733
479.000000	2021.000000	15.687133
480.000000	2020.000000	15.725067
481.000000	2019.000000	15.761600
482.000000	2018.000000	15.798000
483.000000	2017.000000	15.841900
484.000000	2016.000000	15.904367
485.000000	2015.000000	15.971067
486.000000	2014.000000	16.052667
487.000000	2013.000000	16.149100
488.000000	2012.000000	16.260133
489.000000	2011.000000	16.383867
490.000000	2010.000000	16.533300
491.000000	2009.000000	16.705033
492.000000	2008.000000	16.894433
493.000000	2007.000000	17.111633
494.000000	2006.000000	17.351400
495.000000	2005.000000	17.604600
496.000000	2004.000000	17.859767
497.000000	2003.000000	18.149933
498.000000	2002.000000	18.441667
499.000000	2001.000000	18.752567
500.000000	2000.000000	19.076167
501.000000	1999.000000	19.410167
502.000000	1998.000000	19.769000
503.000000	1997.000000	20.121000
504.000000	1996.000000	20.483100
505.000000	1995.000000	20.842867
506.000000	1994.000000	21.200700
507.000000	1993.000000	21.565533
508.000000	1992.000000	21.924967
509.000000	1991.000000	22.293967
510.000000	1990.000000	22.673833
511.000000	1989.000000	23.052600
512.000000	1988.000000	23.433333
513.000000	1987.000000	23.820567
514.000000	1986.000000	24.214100
515.000000	1985.000000	24.612267
516.000000	1984.000000	25.005200
517.000000	1983.000000	25.407333
518.000000	1982.000000	25.821333
519.000000	1981.000000	26.249767
520.000000	1980.000000	26.704300
521.000000	1979.000000	27.173867
522.000000	1978.000000	27.642800
523.000000	1977.000000	28.138500
524.000000	1976.000000	28.659800
525.000000	1975.000000	29.192333
526.000000	1974.000000	29.755000
527.000000	1973.000000	30.340000
528.000000	1972.000000	30.937567
529.000000	1971.000000	31.585933
530.000000	1970.000000	32.259100
531.000000	1969.000000	32.974667
532.000000	1968.000000	33.707033
533.000000	1967.000000	34.448867
534.000000	1966.000000	35.206367
535.000000	1965.000000	35.980900
536.000000	1964.000000	36.753000
537.000000	1963.000000	37.538733
538.000000	1962.000000	38.326333
539.000000	1961.000000	39.113300
540.000000	1960.000000	39.904033
541.000000	1959.000000	40.696900
542.000000	1958.000000	41.470433
543.000000	1957.000000	42.213633
544.000000	1956.000000	42.940233
545.000000	1955.000000	43.634333
546.000000	1954.000000	44.302067
547.000000	1953.000000	44.917133
548.000000	1952.000000	45.507667
549.000000	1951.000000	46.044600
550.000000	1950.000000	46.579733
551.000000	1949.000000	47.072300
552.000000	1948.000000	47.542633
553.000000	1947.000000	47.964967
554.000000	1946.000000	48.379467
555.000000	1945.000000	48.774967
556.000000	1944.000000	49.108267
557.000000	1943.000000	49.478833
558.000000	1942.000000	49.804533
559.000000	1941.000000	50.113367
560.000000	1940.000000	50.528333
561.000000	1939.000000	50.822500
562.000000	1938.000000	51.090433
563.000000	1937.000000	51.324367
564.000000	1936.000000	51.545033
565.000000	1935.000000	51.736667
566.000000	1934.000000	51.925033
567.000000	1933.000000	52.086867
568.000000	1932.000000	52.208500
569.000000	1931.000000	52.323167
570.000000	1930.000000	52.416933
571.000000	1929.000000	52.501433
572.000000	1928.000000	52.579667
573.000000	1927.000000	52.629067
574.000000	1926.000000	52.680033
575.000000	1925.000000	52.746833
576.000000	1924.000000	52.789900
577.000000	1923.000000	52.832967
578.000000	1922.000000	52.887367
579.000000	1921.000000	52.921733
580.000000	1920.000000	52.954400
581.000000	1919.000000	52.995100
582.000000	1918.000000	53.039133
583.000000	1917.000000	53.071700
584.000000	1916.000000	53.127567
585.000000	1915.000000	53.109167
586.000000	1914.000000	53.078500
587.000000	1913.000000	53.028267
588.000000	1912.000000	52.989400
589.000000	1911.000000	52.895500
590.000000	1910.000000	52.789767
591.000000	1909.000000	52.675167
592.000000	1908.000000	52.505433
593.000000	1907.000000	52.355900
594.000000	1906.000000	52.172433
595.000000	1905.000000	51.972900
596.000000	1904.000000	51.790767
597.000000	1903.000000	51.603367
598.000000	1902.000000	51.398600
599.000000	1901.000000	51.189000
600.000000	1900.000000	50.985067
601.000000	1899.000000	50.800667
602.000000	1898.000000	50.601700
603.000000	1897.000000	50.404967
604.000000	1896.000000	50.210867
605.000000	1895.000000	50.022700
606.000000	1894.000000	49.844733
607.000000	1893.000000	49.628900
608.000000	1892.000000	49.455767
609.000000	1891.000000	49.240600
610.000000	1890.000000	49.019300
611.000000	1889.000000	48.781667
612.000000	1888.000000	48.518700
613.000000	1887.000000	48.253600
614.000000	1886.000000	47.957767
615.000000	1885.000000	47.618633
616.000000	1884.000000	47.303700
617.000000	1883.000000	46.938667
618.000000	1882.000000	46.584967
619.000000	1881.000000	46.151633
620.000000	1880.000000	45.727533
621.000000	1879.000000	45.294533
622.000000	1878.000000	44.826733
623.000000	1877.000000	44.362033
624.000000	1876.000000	43.894567
625.000000	1875.000000	43.420967
626.000000	1874.000000	42.960733
627.000000	1873.000000	42.504300
628.000000	1872.000000	42.021833
629.000000	1871.000000	41.567733
630.000000	1870.000000	41.100567
631.000000	1869.000000	40.649967
632.000000	1868.000000	40.214500
633.000000	1867.000000	39.790933
634.000000	1866.000000	39.360967
635.000000	1865.000000	38.945400
636.000000	1864.000000	38.576333
637.000000	1863.000000	38.211967
638.000000	1862.000000	37.871300
639.000000	1861.000000	37.546267
640.000000	1860.000000	37.254433
641.000000	1859.000000	36.974267
642.000000	1858.000000	36.754300
643.000000	1857.000000	36.539167
644.000000	1856.000000	36.347400
645.000000	1855.000000	36.207100
646.000000	1854.000000	36.109933
647.000000	1853.000000	36.035167
648.000000	1852.000000	35.983633
649.000000	1851.000000	35.983933
650.000000	1850.000000	35.997800
651.000000	1849.000000	36.029200
652.000000	1848.000000	36.112167
653.000000	1847.000000	36.221033
654.000000	1846.000000	36.332567
655.000000	1845.000000	36.470133
656.000000	1844.000000	36.620367
657.000000	1843.000000	36.793300
658.000000	1842.000000	36.985533
659.000000	1841.000000	37.190200
660.000000	1840.000000	37.394600
661.000000	1839.000000	37.606267
662.000000	1838.000000	37.819767
663.000000	1837.000000	38.035367
664.000000	1836.000000	38.265433
665.000000	1835.000000	38.463300
666.000000	1834.000000	38.668800
667.000000	1833.000000	38.871000
668.000000	1832.000000	39.050067
669.000000	1831.000000	39.227467
670.000000	1830.000000	39.408100
671.000000	1829.000000	39.588000
672.000000	1828.000000	39.734133
673.000000	1827.000000	39.844733
674.000000	1826.000000	39.965333
675.000000	1825.000000	40.077033
676.000000	1824.000000	40.178767
677.000000	1823.000000	40.238367
678.000000	1822.000000	40.319100
679.000000	1821.000000	40.375900
680.000000	1820.000000	40.432967
681.000000	1819.000000	40.502367
682.000000	1818.000000	40.561300
683.000000	1817.000000	40.606267
684.000000	1816.000000	40.662033
685.000000	1815.000000	40.715400
686.000000	1814.000000	40.780100
687.000000	1813.000000	40.816667
688.000000	1812.000000	40.889567
689.000000	1811.000000	40.967500
690.000000	1810.000000	41.037667
691.000000	1809.000000	41.121367
692.000000	1808.000000	41.200367
693.000000	1807.000000	41.276467
694.000000	1806.000000	41.392567
695.000000	1805.000000	41.514733
696.000000	1804.000000	41.629867
697.000000	1803.000000	41.746700
698.000000	1802.000000	41.859200
699.000000	1801.000000	41.982767
700.000000	1800.000000	42.117533
701.000000	1799.000000	42.243200
702.000000	1798.000000	42.366967
703.000000	1797.000000	42.507367
704.000000	1796.000000	42.669000
705.000000	1795.000000	42.788633
706.000000	1794.000000	42.934133
707.000000	1793.000000	43.099767
708.000000	1792.000000	43.274433
709.000000	1791.000000	43.441667
710.000000	1790.000000	43.617067
711.000000	1789.000000	43.789100
712.000000	1788.000000	43.985500
713.000000	1787.000000	44.166667
714.000000	1786.000000	44.346267
715.000000	1785.000000	44.544133
716.000000	1784.000000	44.734033
717.000000	1783.000000	44.926367
718.000000	1782.000000	45.094633
719.000000	1781.000000	45.282500
720.000000	1780.000000	45.463933
721.000000	1779.000000	45.607467
722.000000	1778.000000	45.803800
723.000000	1777.000000	46.010767
724.000000	1776.000000	46.199800
725.000000	1775.000000	46.364700
726.000000	1774.000000	46.544800
727.000000	1773.000000	46.696600
728.000000	1772.000000	46.847567
729.000000	1771.000000	47.021867
730.000000	1770.000000	47.195600
731.000000	1769.000000	47.372900
732.000000	1768.000000	47.540267
733.000000	1767.000000	47.710333
734.000000	1766.000000	47.885000
735.000000	1765.000000	48.045767
736.000000	1764.000000	48.225900
737.000000	1763.000000	48.399600
738.000000	1762.000000	48.568867
739.000000	1761.000000	48.766500
740.000000	1760.000000	48.935000
741.000000	1759.000000	49.107533
742.000000	1758.000000	49.314433
743.000000	1757.000000	49.495267
744.000000	1756.000000	49.654533
745.000000	1755.000000	49.832267
746.000000	1754.000000	50.009367
747.000000	1753.000000	50.185200
748.000000	1752.000000	50.362300
749.000000	1751.000000	50.529833
750.000000	1750.000000	50.688367
751.000000	1749.000000	50.849133
752.000000	1748.000000	51.016967
753.000000	1747.000000	51.174400
754.000000	1746.000000	51.329000
755.000000	1745.000000	51.489433
756.000000	1744.000000	51.640300
757.000000	1743.000000	51.784433
758.000000	1742.000000	51.930333
759.000000	1741.000000	52.101933
760.000000	1740.000000	52.262333
761.000000	1739.000000	52.417800
762.000000	1738.000000	52.582733
763.000000	1737.000000	52.757000
764.000000	1736.000000	52.881700
765.000000	1735.000000	53.008767
766.000000	1734.000000	53.168600
767.000000	1733.000000	53.311400
768.000000	1732.000000	53.470933
769.000000	1731.000000	53.648633
770.000000	1730.000000	53.785500
771.000000	1729.000000	53.937167
772.000000	1728.000000	54.120833
773.000000	1727.000000	54.305500
774.000000	1726.000000	54.430100
775.000000	1725.000000	54.549400
776.000000	1724.000000	54.719000
777.000000	1723.000000	54.902933
778.000000	1722.000000	55.018533
779.000000	1721.000000	55.137633
780.000000	1720.000000	55.325833
781.000000	1719.000000	55.490467
782.000000	1718.000000	55.606000
783.000000	1717.000000	55.719300
784.000000	1716.000000	55.878100
785.000000	1715.000000	56.034567
786.000000	1714.000000	56.190467
787.000000	1713.000000	56.321367
788.000000	1712.000000	56.401800
789.000000	1711.000000	56.544333
790.000000	1710.000000	56.687100
791.000000	1709.000000	56.807267
792.000000	1708.000000	56.935100
793.000000	1707.000000	57.036700
794.000000	1706.000000	57.157700
795.000000	1705.000000	57.251367
796.000000	1704.000000	57.362167
797.000000	1703.000000	57.534000
798.000000	1702.000000	57.641500
799.000000	1701.000000	57.735400
800.000000	1700.000000	57.910867
801.000000	1699.000000	58.018667
802.000000	1698.000000	58.154233
803.000000	1697.000000	58.284367
804.000000	1696.000000	58.429500
805.000000	1695.000000	58.480800
806.000000	1694.000000	58.679167
807.000000	1693.000000	58.780100
808.000000	1692.000000	58.917900
809.000000	1691.000000	59.066267
810.000000	1690.000000	59.111433
811.000000	1689.000000	59.231367
812.000000	1688.000000	59.423167
813.000000	1687.000000	59.547567
814.000000	1686.000000	59.636100
815.000000	1685.000000	59.768767
816.000000	1684.000000	59.865467
817.000000	1683.000000	60.065967
818.000000	1682.000000	60.204100
819.000000	1681.000000	60.380767
820.000000	1680.000000	60.434900
821.000000	1679.000000	60.553167
822.000000	1678.000000	60.729533
823.000000	1677.000000	60.942333
824.000000	1676.000000	61.041433
825.000000	1675.000000	61.219467
826.000000	1674.000000	61.287733
827.000000	1673.000000	61.421433
828.000000	1672.000000	61.648000
829.000000	1671.000000	61.780667
830.000000	1670.000000	61.901500
831.000000	1669.000000	62.022667
832.000000	1668.000000	62.240267
833.000000	1667.000000	62.289867
834.000000	1666.000000	62.427867
835.000000	1665.000000	62.578733
836.000000	1664.000000	62.720267
837.000000	1663.000000	62.931367
838.000000	1662.000000	62.947200
839.000000	1661.000000	63.017567
840.000000	1660.000000	63.082733
841.000000	1659.000000	63.098667
842.000000	1658.000000	63.425533
843.000000	1657.000000	63.502400
844.000000	1656.000000	63.487633
845.000000	1655.000000	63.683867
846.000000	1654.000000	63.843567
847.000000	1653.000000	63.886900
848.000000	1652.000000	63.956867
849.000000	1651.000000	64.059967
850.000000	1650.000000	64.297367
851.000000	1649.000000	64.375067
852.000000	1648.000000	64.229767
853.000000	1647.000000	64.501933
854.000000	1646.000000	64.562600
855.000000	1645.000000	64.743067
856.000000	1644.000000	64.605433
857.000000	1643.000000	64.742033
858.000000	1642.000000	64.696845
859.000000	1641.000000	64.775176
860.000000	1640.000000	64.888511
861.000000	1639.000000	65.041122
862.000000	1638.000000	65.238065
863.000000	1637.000000	65.406347
864.000000	1636.000000	65.571253
865.000000	1635.000000	65.687451
866.000000	1634.000000	65.797002
867.000000	1633.000000	65.870353
868.000000	1632.000000	65.965722
869.000000	1631.000000	66.022261
870.000000	1630.000000	66.102408
871.000000	1629.000000	66.167119
872.000000	1628.000000	66.240912
873.000000	1627.000000	66.299574
874.000000	1626.000000	66.390063
875.000000	1625.000000	66.434141
876.000000	1624.000000	66.511501
877.000000	1623.000000	66.561625
878.000000	1622.000000	66.624503
879.000000	1621.000000	66.678530
880.000000	1620.000000	66.738676
881.000000	1619.000000	66.775787
882.000000	1618.000000	66.836082
883.000000	1617.000000	66.876036
884.000000	1616.000000	66.943513
885.000000	1615.000000	66.970492
886.000000	1614.000000	67.020933
887.000000	1613.000000	67.054752
888.000000	1612.000000	67.085691
889.000000	1611.000000	67.124415
890.000000	1610.000000	67.126914
891.000000	1609.000000	67.156556
892.000000	1608.000000	67.177282
893.000000	1607.000000	67.191925
894.000000	1606.000000	67.211846
895.000000	1605.000000	67.217888
896.000000	1604.000000	67.234343
897.000000	1603.000000	67.235631
898.000000	1602.000000	67.225179
899.000000	1601.000000	67.240416
900.000000	1600.000000	67.234386
901.000000	1599.000000	67.253282
902.000000	1598.000000	67.236229
903.000000	1597.000000	67.228107
904.000000	1596.000000	67.253026
905.000000	1595.000000	67.255098
906.000000	1594.000000	67.219328
907.000000	1593.000000	67.234043
908.000000	1592.000000	67.228535
909.000000	1591.000000	67.253706
910.000000	1590.000000	67.236309
911.000000	1589.000000	67.251352
912.000000	1588.000000	67.252189
913.000000	1587.000000	67.254499
914.000000	1586.000000	67.283923
915.000000	1585.000000	67.276788
916.000000	1584.000000	67.297364
917.000000	1583.000000	67.301013
918.000000	1582.000000	67.292618
919.000000	1581.000000	67.286398
920.000000	1580.000000	67.288300
921.000000	1579.000000	67.286338
922.000000	1578.000000	67.296464
923.000000	1577.000000	67.292939
924.000000	1576.000000	67.288264
925.000000	1575.000000	67.271966
926.000000	1574.000000	67.273365
927.000000	1573.000000	67.254341
928.000000	1572.000000	67.239910
929.000000	1571.000000	67.223907
930.000000	1570.000000	67.222321
931.000000	1569.000000	67.201043
932.000000	1568.000000	67.186084
933.000000	1567.000000	67.168346
934.000000	1566.000000	67.156833
935.000000	1565.000000	67.130269
936.000000	1564.000000	67.095234
937.000000	1563.000000	67.064578
938.000000	1562.000000	67.015896
939.000000	1561.000000	66.982441
940.000000	1560.000000	66.954698
941.000000	1559.000000	66.905706
942.000000	1558.000000	66.866926
943.000000	1557.000000	66.832525
944.000000	1556.000000	66.789224
945.000000	1555.000000	66.769597
946.000000	1554.000000	66.739795
947.000000	1553.000000	66.698970
948.000000	1552.000000	66.673540
949.000000	1551.000000	66.639281
950.000000	1550.000000	66.598940
951.000000	1549.000000	66.567844
952.000000	1548.000000	66.536762
953.000000	1547.000000	66.519848
954.000000	1546.000000	66.478840
955.000000	1545.000000	66.428162
956.000000	1544.000000	66.386920
957.000000	1543.000000	66.354839
958.000000	1542.000000	66.315515
959.000000	1541.000000	66.283624
960.000000	1540.000000	66.255621
961.000000	1539.000000	66.217748
962.000000	1538.000000	66.181344
963.000000	1537.000000	66.150442
964.000000	1536.000000	66.127028
965.000000	1535.000000	66.105447
966.000000	1534.000000	66.071675
967.000000	1533.000000	66.048430
968.000000	1532.000000	66.018178
969.000000	1531.000000	65.989638
970.000000	1530.000000	65.976583
971.000000	1529.000000	65.949715
972.000000	1528.000000	65.931717
973.000000	1527.000000	65.917390
974.000000	1526.000000	65.901190
975.000000	1525.000000	65.870939
976.000000	1524.000000	65.847354
977.000000	1523.000000	65.843227
978.000000	1522.000000	65.814811
979.000000	1521.000000	65.780387
980.000000	1520.000000	65.770859
981.000000	1519.000000	65.757109
982.000000	1518.000000	65.729422
983.000000	1517.000000	65.715104
984.000000	1516.000000	65.698717
985.000000	1515.000000	65.686424
986.000000	1514.000000	65.673798
987.000000	1513.000000	65.660736
988.000000	1512.000000	65.646219
989.000000	1511.000000	65.634775
990.000000	1510.000000	65.628164
991.000000	1509.000000	65.604992
992.000000	1508.000000	65.597041
993.000000	1507.000000	65.585263
994.000000	1506.000000	65.569052
995.000000	1505.000000	65.564171
996.000000	1504.000000	65.554726
997.000000	1503.000000	65.536564
998.000000	1502.000000	65.525082
999.000000	1501.000000	65.509228
1000.000000	1500.000000	65.487024
1001.000000	1499.000000	65.472273
1002.000000	1498.000000	65.461627
1003.000000	1497.000000	65.438336
1004.000000	1496.000000	65.421914
1005.000000	1495.000000	65.403207
1006.000000	1494.000000	65.383423
1007.000000	1493.000000	65.364314
1008.000000	1492.000000	65.341023
1009.000000	1491.000000	65.308434
1010.000000	1490.000000	65.285129
1011.000000	1489.000000	65.270004
1012.000000	1488.000000	65.252624
1013.000000	1487.000000	65.238440
1014.000000	1486.000000	65.220950
1015.000000	1485.000000	65.207546
1016.000000	1484.000000	65.193685
1017.000000	1483.000000	65.182902
1018.000000	1482.000000	65.183083
1019.000000	1481.000000	65.180324
1020.000000	1480.000000	65.176622
1021.000000	1479.000000	65.183026
1022.000000	1478.000000	65.187474
1023.000000	1477.000000	65.183574
1024.000000	1476.000000	65.192146
1025.000000	1475.000000	65.205254
1026.000000	1474.000000	65.214181
1027.000000	1473.000000	65.231958
1028.000000	1472.000000	65.246907
1029.000000	1471.000000	65.254967
1030.000000	1470.000000	65.267390
1031.000000	1469.000000	65.282098
1032.000000	1468.000000	65.289838
1033.000000	1467.000000	65.309278
1034.000000	1466.000000	65.334369
1035.000000	1465.000000	65.350531
1036.000000	1464.000000	65.364573
1037.000000	1463.000000	65.381913
1038.000000	1462.000000	65.406991
1039.000000	1461.000000	65.429982
1040.000000	1460.000000	65.445197
1041.000000	1459.000000	65.463907
1042.000000	1458.000000	65.487013
1043.000000	1457.000000	65.507450
1044.000000	1456.000000	65.529002
1045.000000	1455.000000	65.558947
1046.000000	1454.000000	65.576610
1047.000000	1453.000000	65.594751
1048.000000	1452.000000	65.630219
1049.000000	1451.000000	65.660784
1050.000000	1450.000000	65.690800
1051.000000	1449.000000	65.714688
1052.000000	1448.000000	65.742783
1053.000000	1447.000000	65.781440
1054.000000	1446.000000	65.809516
1055.000000	1445.000000	65.843081
1056.000000	1444.000000	65.873043
1057.000000	1443.000000	65.906973
1058.000000	1442.000000	65.945032
1059.000000	1441.000000	65.989898
1060.000000	1440.000000	66.019013
1061.000000	1439.000000	66.055759
1062.000000	1438.000000	66.105551
1063.000000	1437.000000	66.138768
1064.000000	1436.000000	66.167356
1065.000000	1435.000000	66.196777
1066.000000	1434.000000	66.226700
1067.000000	1433.000000	66.261958
1068.000000	1432.000000	66.300399
1069.000000	1431.000000	66.341217
1070.000000	1430.000000	66.382525
1071.000000	1429.000000	66.409407
1072.000000	1428.000000	66.446624
1073.000000	1427.000000	66.482189
1074.000000	1426.000000	66.505351
1075.000000	1425.000000	66.524114
1076.000000	1424.000000	66.559708
1077.000000	1423.000000	66.589994
1078.000000	1422.000000	66.618807
1079.000000	1421.000000	66.644796
1080.000000	1420.000000	66.667933
1081.000000	1419.000000	66.701422
1082.000000	1418.000000	66.732139
1083.000000	1417.000000	66.759501
1084.000000	1416.000000	66.779836
1085.000000	1415.000000	66.803858
1086.000000	1414.000000	66.826313
1087.000000	1413.000000	66.859092
1088.000000	1412.000000	66.888842
1089.000000	1411.000000	66.896525
1090.000000	1410.000000	66.910660
1091.000000	1409.000000	66.937523
1092.000000	1408.000000	66.962959
1093.000000	1407.000000	66.970350
1094.000000	1406.000000	66.994043
1095.000000	1405.000000	67.018861
1096.000000	1404.000000	67.028356
1097.000000	1403.000000	67.040182
1098.000000	1402.000000	67.046948
1099.000000	1401.000000	67.067064
1100.000000	1400.000000	67.075457
1101.000000	1399.000000	67.080397
1102.000000	1398.000000	67.097189
1103.000000	1397.000000	67.093304
1104.000000	1396.000000	67.106538
1105.000000	1395.000000	67.118351
1106.000000	1394.000000	67.122935
1107.000000	1393.000000	67.127559
1108.000000	1392.000000	67.135189
1109.000000	1391.000000	67.136484
1110.000000	1390.000000	67.150580
1111.000000	1389.000000	67.157460
1112.000000	1388.000000	67.150640
1113.000000	1387.000000	67.149954
1114.000000	1386.000000	67.164410
1115.000000	1385.000000	67.173561
1116.000000	1384.000000	67.170744
1117.000000	1383.000000	67.183000
1118.000000	1382.000000	67.183043
1119.000000	1381.000000	67.178537
1120.000000	1380.000000	67.172507
1121.000000	1379.000000	67.163478
1122.000000	1378.000000	67.159839
1123.000000	1377.000000	67.142794
1124.000000	1376.000000	67.130690
1125.000000	1375.000000	67.069408
1126.000000	1374.000000	67.030820
1127.000000	1373.000000	66.967938
1128.000000	1372.000000	66.914268
1129.000000	1371.000000	66.849024
1130.000000	1370.000000	66.762044
1131.000000	1369.000000	66.651317
1132.000000	1368.000000	66.523646
1133.000000	1367.000000	66.403641
1134.000000	1366.000000	66.330109
1135.000000	1365.000000	66.214955
1136.000000	1364.000000	66.073693
1137.000000	1363.000000	65.894036
1138.000000	1362.000000	65.732117
1139.000000	1361.000000	65.581239
1140.000000	1360.000000	65.459071
1141.000000	1359.000000	65.343193
1142.000000	1358.000000	65.223726
1143.000000	1357.000000	65.096755
1144.000000	1356.000000	65.013135
1145.000000	1355.000000	64.944006
1146.000000	1354.000000	64.884053
1147.000000	1353.000000	64.829789
1148.000000	1352.000000	64.779871
1149.000000	1351.000000	64.741736
1150.000000	1350.000000	64.695757
1151.000000	1349.000000	64.666172
1152.000000	1348.000000	64.620356
1153.000000	1347.000000	64.583100
1154.000000	1346.000000	64.510666
1155.000000	1345.000000	64.441504
1156.000000	1344.000000	64.351734
1157.000000	1343.000000	64.234995
1158.000000	1342.000000	64.102500
1159.000000	1341.000000	63.968862
1160.000000	1340.000000	63.804252
1161.000000	1339.000000	63.650292
1162.000000	1338.000000	63.473377
1163.000000	1337.000000	63.296143
1164.000000	1336.000000	63.116760
1165.000000	1335.000000	62.940180
1166.000000	1334.000000	62.753601
1167.000000	1333.000000	62.585501
1168.000000	1332.000000	62.409068
1169.000000	1331.000000	62.245633
1170.000000	1330.000000	62.089433
1171.000000	1329.000000	61.915125
1172.000000	1328.000000	61.761830
1173.000000	1327.000000	61.620922
1174.000000	1326.000000	61.487394
1175.000000	1325.000000	61.364081
1176.000000	1324.000000	61.215850
1177.000000	1323.000000	61.094378
1178.000000	1322.000000	60.938468
1179.000000	1321.000000	60.785392
1180.000000	1320.000000	60.622867
1181.000000	1319.000000	60.446372
1182.000000	1318.000000	60.284989
1183.000000	1317.000000	60.133508
1184.000000	1316.000000	59.992819
1185.000000	1315.000000	59.899584
1186.000000	1314.000000	59.857440
1187.000000	1313.000000	59.838181
1188.000000	1312.000000	59.846658
1189.000000	1311.000000	59.925866
1190.000000	1310.000000	60.041194
1191.000000	1309.000000	60.160159
1192.000000	1308.000000	60.317366
1193.000000	1307.000000	60.454760
1194.000000	1306.000000	60.607323
1195.000000	1305.000000	60.753359
1196.000000	1304.000000	60.863729
1197.000000	1303.000000	60.965619
1198.000000	1302.000000	61.053212
1199.000000	1301.000000	61.128442
1200.000000	1300.000000	61.199803
1201.000000	1299.000000	61.269481
1202.000000	1298.000000	61.328093
1203.000000	1297.000000	61.375288
1204.000000	1296.000000	61.427256
1205.000000	1295.000000	61.480647
1206.000000	1294.000000	61.540115
1207.000000	1293.000000	61.595766
1208.000000	1292.000000	61.653226
1209.000000	1291.000000	61.722726
1210.000000	1290.000000	61.786654
1211.000000	1289.000000	61.849057
1212.000000	1288.000000	61.927843
1213.000000	1287.000000	61.987168
1214.000000	1286.000000	62.039245
1215.000000	1285.000000	62.097998
1216.000000	1284.000000	62.153894
1217.000000	1283.000000	62.211016
1218.000000	1282.000000	62.267316
1219.000000	1281.000000	62.316815
1220.000000	1280.000000	62.365345
1221.000000	1279.000000	62.417963
1222.000000	1278.000000	62.475450
1223.000000	1277.000000	62.525296
1224.000000	1276.000000	62.584481
1225.000000	1275.000000	62.637980
1226.000000	1274.000000	62.683980
1227.000000	1273.000000	62.732102
1228.000000	1272.000000	62.791979
1229.000000	1271.000000	62.852533
1230.000000	1270.000000	62.907328
1231.000000	1269.000000	62.941636
1232.000000	1268.000000	62.988250
1233.000000	1267.000000	63.028734
1234.000000	1266.000000	63.067717
1235.000000	1265.000000	63.112944
1236.000000	1264.000000	63.138668
1237.000000	1263.000000	63.172576
1238.000000	1262.000000	63.210920
1239.000000	1261.000000	63.243231
1240.000000	1260.000000	63.281628
1241.000000	1259.000000	63.324895
1242.000000	1258.000000	63.362786
1243.000000	1257.000000	63.412263
1244.000000	1256.000000	63.467313
1245.000000	1255.000000	63.528879
1246.000000	1254.000000	63.596514
1247.000000	1253.000000	63.648346
1248.000000	1252.000000	63.707757
1249.000000	1251.000000	63.766855
1250.000000	1250.000000	63.828769
1251.000000	1249.000000	63.877820
1252.000000	1248.000000	63.925480
1253.000000	1247.000000	63.974346
1254.000000	1246.000000	64.020588
1255.000000	1245.000000	64.059445
1256.000000	1244.000000	64.095282
1257.000000	1243.000000	64.124355
1258.000000	1242.000000	64.148777
1259.000000	1241.000000	64.174453
1260.000000	1240.000000	64.199402
1261.000000	1239.000000	64.217998
1262.000000	1238.000000	64.238664
1263.000000	1237.000000	64.242206
1264.000000	1236.000000	64.248575
1265.000000	1235.000000	64.264544
1266.000000	1234.000000	64.277154
1267.000000	1233.000000	64.281069
1268.000000	1232.000000	64.285011
1269.000000	1231.000000	64.286198
1270.000000	1230.000000	64.294142
1271.000000	1229.000000	64.293877
1272.000000	1228.000000	64.293254
1273.000000	1227.000000	64.292117
1274.000000	1226.000000	64.293405
1275.000000	1225.000000	64.302666
1276.000000	1224.000000	64.309525
1277.000000	1223.000000	64.326221
1278.000000	1222.000000	64.348718
1279.000000	1221.000000	64.370556
1280.000000	1220.000000	64.394979
1281.000000	1219.000000	64.425848
1282.000000	1218.000000	64.459026
1283.000000	1217.000000	64.487190
1284.000000	1216.000000	64.522489
1285.000000	1215.000000	64.567454
1286.000000	1214.000000	64.598819
1287.000000	1213.000000	64.630363
1288.000000	1212.000000	64.664248
1289.000000	1211.000000	64.694709
1290.000000	1210.000000	64.722303
1291.000000	1209.000000	64.743441
1292.000000	1208.000000	64.761366
1293.000000	1207.000000	64.773483
1294.000000	1206.000000	64.788350
1295.000000	1205.000000	64.801084
1296.000000	1204.000000	64.808345
1297.000000	1203.000000	64.818612
1298.000000	1202.000000	64.820434
1299.000000	1201.000000	64.819477
1300.000000	1200.000000	64.811543
1301.000000	1199.000000	64.800961
1302.000000	1198.000000	64.800700
1303.000000	1197.000000	64.795651
1304.000000	1196.000000	64.780538
1305.000000	1195.000000	64.764584
1306.000000	1194.000000	64.746830
1307.000000	1193.000000	64.728265
1308.000000	1192.000000	64.705955
1309.000000	1191.000000	64.673535
1310.000000	1190.000000	64.640997
1311.000000	1189.000000	64.605275
1312.000000	1188.000000	64.563434
1313.000000	1187.000000	64.526842
1314.000000	1186.000000	64.486939
1315.000000	1185.000000	64.436205
1316.000000	1184.000000	64.390467
1317.000000	1183.000000	64.345981
1318.000000	1182.000000	64.295386
1319.000000	1181.000000	64.253118
1320.000000	1180.000000	64.206130
1321.000000	1179.000000	64.151655
1322.000000	1178.000000	64.091028
1323.000000	1177.000000	64.034089
1324.000000	1176.000000	63.975580
1325.000000	1175.000000	63.910411
1326.000000	1174.000000	63.840838
1327.000000	1173.000000	63.767956
1328.000000	1172.000000	63.694588
1329.000000	1171.000000	63.614040
1330.000000	1170.000000	63.528178
1331.000000	1169.000000	63.445551
1332.000000	1168.000000	63.348486
1333.000000	1167.000000	63.235994
1334.000000	1166.000000	63.123963
1335.000000	1165.000000	63.008006
1336.000000	1164.000000	62.890592
1337.000000	1163.000000	62.764298
1338.000000	1162.000000	62.622460
1339.000000	1161.000000	62.473694
1340.000000	1160.000000	62.317371
1341.000000	1159.000000	62.166075
1342.000000	1158.000000	61.997506
1343.000000	1157.000000	61.828005
1344.000000	1156.000000	61.658384
1345.000000	1155.000000	61.455751
1346.000000	1154.000000	61.242009
1347.000000	1153.000000	61.058771
1348.000000	1152.000000	60.863768
1349.000000	1151.000000	60.631711
1350.000000	1150.000000	60.386005
1351.000000	1149.000000	60.144614
1352.000000	1148.000000	59.905487
1353.000000	1147.000000	59.636967
1354.000000	1146.000000	59.452410
1355.000000	1145.000000	59.279741
1356.000000	1144.000000	59.097380
1357.000000	1143.000000	58.926764
1358.000000	1142.000000	58.793187
1359.000000	1141.000000	58.693341
1360.000000	1140.000000	58.620213
1361.000000	1139.000000	58.593360
1362.000000	1138.000000	58.540840
1363.000000	1137.000000	58.415523
1364.000000	1136.000000	58.244152
1365.000000	1135.000000	58.093451
1366.000000	1134.000000	57.902762
1367.000000	1133.000000	57.709058
1368.000000	1132.000000	57.525628
1369.000000	1131.000000	57.270853
1370.000000	1130.000000	56.944839
1371.000000	1129.000000	56.600218
1372.000000	1128.000000	56.176179
1373.000000	1127.000000	55.636244
1374.000000	1126.000000	55.037786
1375.000000	1125.000000	54.436136
1376.000000	1124.000000	53.863869
1377.000000	1123.000000	53.292396
1378.000000	1122.000000	52.725508
1379.000000	1121.000000	52.269424
1380.000000	1120.000000	51.791172
1381.000000	1119.000000	51.538732
1382.000000	1118.000000	51.288822
1383.000000	1117.000000	51.049221
1384.000000	1116.000000	50.836549
1385.000000	1115.000000	50.628131
1386.000000	1114.000000	50.436323
1387.000000	1113.000000	50.315547
1388.000000	1112.000000	50.291445
1389.000000	1111.000000	50.241311
1390.000000	1110.000000	50.169464
1391.000000	1109.000000	50.153892
1392.000000	1108.000000	50.208921
1393.000000	1107.000000	50.251685
1394.000000	1106.000000	50.271590
1395.000000	1105.000000	50.331195
1396.000000	1104.000000	50.437896
1397.000000	1103.000000	50.367507
1398.000000	1102.000000	50.242931
1399.000000	1101.000000	50.177985
1400.000000	1100.000000	50.211722
1401.000000	1099.000000	50.238737
1402.000000	1098.000000	50.002828
1403.000000	1097.000000	49.764538
1404.000000	1096.000000	49.558069
1405.000000	1095.000000	49.458139
1406.000000	1094.000000	49.270159
1407.000000	1093.000000	49.051606
1408.000000	1092.000000	48.827763
1409.000000	1091.000000	48.608525
1410.000000	1090.000000	48.365088
1411.000000	1089.000000	48.087818
1412.000000	1088.000000	47.789875
1413.000000	1087.000000	47.608381
1414.000000	1086.000000	47.440495
1415.000000	1085.000000	47.232252
1416.000000	1084.000000	46.965817
1417.000000	1083.000000	46.671313
1418.000000	1082.000000	46.514774
1419.000000	1081.000000	46.354809
1420.000000	1080.000000	46.148221
1421.000000	1079.000000	45.897384
1422.000000	1078.000000	45.630038
1423.000000	1077.000000	45.432895
1424.000000	1076.000000	45.276090
1425.000000	1075.000000	45.062129
1426.000000	1074.000000	44.837435
1427.000000	1073.000000	44.642243
1428.000000	1072.000000	44.475933
1429.000000	1071.000000	44.312297
1430.000000	1070.000000	44.128746
1431.000000	1069.000000	43.981008
1432.000000	1068.000000	43.859780
1433.000000	1067.000000	43.736588
1434.000000	1066.000000	43.568921
1435.000000	1065.000000	43.423646
1436.000000	1064.000000	43.291046
1437.000000	1063.000000	43.153575
1438.000000	1062.000000	43.065035
1439.000000	1061.000000	42.929631
1440.000000	1060.000000	42.815102
1441.000000	1059.000000	42.683591
1442.000000	1058.000000	42.573592
1443.000000	1057.000000	42.445712
1444.000000	1056.000000	42.325034
1445.000000	1055.000000	42.236795
1446.000000	1054.000000	42.177053
1447.000000	1053.000000	42.023400
1448.000000	1052.000000	41.877161
1449.000000	1051.000000	41.763883
1450.000000	1050.000000	41.694850
1451.000000	1049.000000	41.624984
1452.000000	1048.000000	41.519461
1453.000000	1047.000000	41.377063
1454.000000	1046.000000	41.249240
1455.000000	1045.000000	41.152079
1456.000000	1044.000000	41.065196
1457.000000	1043.000000	40.952060
1458.000000	1042.000000	40.848853
1459.000000	1041.000000	40.741987
1460.000000	1040.000000	40.647327
1461.000000	1039.000000	40.555333
1462.000000	1038.000000	40.472634
1463.000000	1037.000000	40.371918
1464.000000	1036.000000	40.298556
1465.000000	1035.000000	40.214667
1466.000000	1034.000000	40.137660
1467.000000	1033.000000	40.067219
1468.000000	1032.000000	39.979175
1469.000000	1031.000000	39.891555
1470.000000	1030.000000	39.838341
1471.000000	1029.000000	39.784567
1472.000000	1028.000000	39.714312
1473.000000	1027.000000	39.632918
1474.000000	1026.000000	39.550371
1475.000000	1025.000000	39.468100
1476.000000	1024.000000	39.418285
1477.000000	1023.000000	39.362978
1478.000000	1022.000000	39.313228
1479.000000	1021.000000	39.259484
1480.000000	1020.000000	39.217195
1481.000000	1019.000000	39.169189
1482.000000	1018.000000	39.127570
1483.000000	1017.000000	39.080764
1484.000000	1016.000000	39.048192
1485.000000	1015.000000	38.997378
1486.000000	1014.000000	38.977934
1487.000000	1013.000000	38.955043
1488.000000	1012.000000	38.927889
1489.000000	1011.000000	38.897072
1490.000000	1010.000000	38.861713
1491.000000	1009.000000	38.836818
1492.000000	1008.000000	38.814253
1493.000000	1007.000000	38.795812
1494.000000	1006.000000	38.770418
1495.000000	1005.000000	38.766727
1496.000000	1004.000000	38.770671
1497.000000	1003.000000	38.789408
1498.000000	1002.000000	38.781248
1499.000000	1001.000000	38.794049
1500.000000	1000.000000	38.816265
1501.000000	999.000000	38.843797
1502.000000	998.000000	38.874470
1503.000000	997.000000	38.909677
1504.000000	996.000000	38.950258
1505.000000	995.000000	39.000985
1506.000000	994.000000	39.042971
1507.000000	993.000000	39.088157
1508.000000	992.000000	39.142472
1509.000000	991.000000	39.194206
1510.000000	990.000000	39.242063
1511.000000	989.000000	39.284954
1512.000000	988.000000	39.333842
1513.000000	987.000000	39.389319
1514.000000	986.000000	39.436032
1515.000000	985.000000	39.486814
1516.000000	984.000000	39.533389
1517.000000	983.000000	39.587317
1518.000000	982.000000	39.634411
1519.000000	981.000000	39.689097
1520.000000	980.000000	39.736299
1521.000000	979.000000	39.781031
1522.000000	978.000000	39.836388
1523.000000	977.000000	39.883655
1524.000000	976.000000	39.931975
1525.000000	975.000000	39.976986
1526.000000	974.000000	40.023176
1527.000000	973.000000	40.069903
1528.000000	972.000000	40.113738
1529.000000	971.000000	40.156312
1530.000000	970.000000	40.200403
1531.000000	969.000000	40.231472
1532.000000	968.000000	40.270288
1533.000000	967.000000	40.306006
1534.000000	966.000000	40.346011
1535.000000	965.000000	40.382190
1536.000000	964.000000	40.410396
1537.000000	963.000000	40.441170
1538.000000	962.000000	40.459898
1539.000000	961.000000	40.487404
1540.000000	960.000000	40.523546
1541.000000	959.000000	40.553127
1542.000000	958.000000	40.580328
1543.000000	957.000000	40.610918
1544.000000	956.000000	40.648682
1545.000000	955.000000	40.700970
1546.000000	954.000000	40.759195
1547.000000	953.000000	40.813254
1548.000000	952.000000	40.868228
1549.000000	951.000000	40.940827
1550.000000	950.000000	41.013118
1551.000000	949.000000	41.082548
1552.000000	948.000000	41.146606
1553.000000	947.000000	41.203990
1554.000000	946.000000	41.257595
1555.000000	945.000000	41.304008
1556.000000	944.000000	41.346087
1557.000000	943.000000	41.386603
1558.000000	942.000000	41.419030
1559.000000	941.000000	41.435795
1560.000000	940.000000	41.444475
1561.000000	939.000000	41.449837
1562.000000	938.000000	41.442284
1563.000000	937.000000	41.434672
1564.000000	936.000000	41.420275
1565.000000	935.000000	41.397411
1566.000000	934.000000	41.376696
1567.000000	933.000000	41.355711
1568.000000	932.000000	41.330564
1569.000000	931.000000	41.301271
1570.000000	930.000000	41.276483
1571.000000	929.000000	41.255471
1572.000000	928.000000	41.241495
1573.000000	927.000000	41.231562
1574.000000	926.000000	41.222334
1575.000000	925.000000	41.220134
1576.000000	924.000000	41.226763
1577.000000	923.000000	41.232627
1578.000000	922.000000	41.245237
1579.000000	921.000000	41.259432
1580.000000	920.000000	41.280428
1581.000000	919.000000	41.318363
1582.000000	918.000000	41.352478
1583.000000	917.000000	41.385435
1584.000000	916.000000	41.426744
1585.000000	915.000000	41.466736
1586.000000	914.000000	41.514559
1587.000000	913.000000	41.563608
1588.000000	912.000000	41.605155
1589.000000	911.000000	41.653588
1590.000000	910.000000	41.699480
1591.000000	909.000000	41.743495
1592.000000	908.000000	41.798837
1593.000000	907.000000	41.854492
1594.000000	906.000000	41.907508
1595.000000	905.000000	41.972914
1596.000000	904.000000	42.036545
1597.000000	903.000000	42.098762
1598.000000	902.000000	42.162952
1599.000000	901.000000	42.229060
1600.000000	900.000000	42.303593
1601.000000	899.000000	42.385625
1602.000000	898.000000	42.456198
1603.000000	897.000000	42.530964
1604.000000	896.000000	42.603483
1605.000000	895.000000	42.679440
1606.000000	894.000000	42.753952
1607.000000	893.000000	42.817281
1608.000000	892.000000	42.888934
1609.000000	891.000000	42.956016
1610.000000	890.000000	43.019405
1611.000000	889.000000	43.073997
1612.000000	888.000000	43.132583
1613.000000	887.000000	43.194240
1614.000000	886.000000	43.241987
1615.000000	885.000000	43.292748
1616.000000	884.000000	43.336203
1617.000000	883.000000	43.381963
1618.000000	882.000000	43.428387
1619.000000	881.000000	43.470441
1620.000000	880.000000	43.511432
1621.000000	879.000000	43.568477
1622.000000	878.000000	43.612762
1623.000000	877.000000	43.666414
1624.000000	876.000000	43.717293
1625.000000	875.000000	43.760479
1626.000000	874.000000	43.824163
1627.000000	873.000000	43.884197
1628.000000	872.000000	43.937851
1629.000000	871.000000	43.981395
1630.000000	870.000000	44.035887
1631.000000	869.000000	44.096387
1632.000000	868.000000	44.146448
1633.000000	867.000000	44.196814
1634.000000	866.000000	44.243374
1635.000000	865.000000	44.285207
1636.000000	864.000000	44.309938
1637.000000	863.000000	44.342351
1638.000000	862.000000	44.377452
1639.000000	861.000000	44.404139
1640.000000	860.000000	44.431045
1641.000000	859.000000	44.451278
1642.000000	858.000000	44.465495
1643.000000	857.000000	44.492025
1644.000000	856.000000	44.518656
1645.000000	855.000000	44.547330
1646.000000	854.000000	44.568043
1647.000000	853.000000	44.590993
1648.000000	852.000000	44.615518
1649.000000	851.000000	44.630786
1650.000000	850.000000	44.640902
1651.000000	849.000000	44.643081
1652.000000	848.000000	44.631890
1653.000000	847.000000	44.630404
1654.000000	846.000000	44.607232
1655.000000	845.000000	44.570183
1656.000000	844.000000	44.543709
1657.000000	843.000000	44.493032
1658.000000	842.000000	44.432915
1659.000000	841.000000	44.367701
1660.000000	840.000000	44.272176
1661.000000	839.000000	44.189453
1662.000000	838.000000	44.074371
1663.000000	837.000000	43.950746
1664.000000	836.000000	43.819854
1665.000000	835.000000	43.692359
1666.000000	834.000000	43.557077
1667.000000	833.000000	43.415489
1668.000000	832.000000	43.253626
1669.000000	831.000000	43.075647
1670.000000	830.000000	42.868692
1671.000000	829.000000	42.671604
1672.000000	828.000000	42.453085
1673.000000	827.000000	42.229712
1674.000000	826.000000	41.986285
1675.000000	825.000000	41.752258
1676.000000	824.000000	41.485496
1677.000000	823.000000	41.203190
1678.000000	822.000000	40.888043
1679.000000	821.000000	40.568332
1680.000000	820.000000	40.216169
1681.000000	819.000000	39.872281
1682.000000	818.000000	39.534176
1683.000000	817.000000	39.228522
1684.000000	816.000000	38.961258
1685.000000	815.000000	38.755634
1686.000000	814.000000	38.595459
1687.000000	813.000000	38.479878
1688.000000	812.000000	38.405029
1689.000000	811.000000	38.353886
1690.000000	810.000000	38.318555
1691.000000	809.000000	38.302944
1692.000000	808.000000	38.289718
1693.000000	807.000000	38.272565
1694.000000	806.000000	38.278294
1695.000000	805.000000	38.287516
1696.000000	804.000000	38.293681
1697.000000	803.000000	38.326418
1698.000000	802.000000	38.373891
1699.000000	801.000000	38.446122
1700.000000	800.000000	38.521542
1701.000000	799.000000	38.603671
1702.000000	798.000000	38.683924
1703.000000	797.000000	38.745139
1704.000000	796.000000	38.806204
1705.000000	795.000000	38.824166
1706.000000	794.000000	38.847048
1707.000000	793.000000	38.843149
1708.000000	792.000000	38.812623
1709.000000	791.000000	38.783272
1710.000000	790.000000	38.736907
1711.000000	789.000000	38.667341
1712.000000	788.000000	38.584915
1713.000000	787.000000	38.487397
1714.000000	786.000000	38.356225
1715.000000	785.000000	38.219842
1716.000000	784.000000	38.069143
1717.000000	783.000000	37.900847
1718.000000	782.000000	37.750839
1719.000000	781.000000	37.600965
1720.000000	780.000000	37.462107
1721.000000	779.000000	37.350616
1722.000000	778.000000	37.262562
1723.000000	777.000000	37.207953
1724.000000	776.000000	37.172967
1725.000000	775.000000	37.155823
1726.000000	774.000000	37.137515
1727.000000	773.000000	37.139577
1728.000000	772.000000	37.131077
1729.000000	771.000000	37.124093
1730.000000	770.000000	37.109477
1731.000000	769.000000	37.097267
1732.000000	768.000000	37.098854
1733.000000	767.000000	37.108719
1734.000000	766.000000	37.129579
1735.000000	765.000000	37.151995
1736.000000	764.000000	37.221917
1737.000000	763.000000	37.297555
1738.000000	762.000000	37.408206
1739.000000	761.000000	37.532329
1740.000000	760.000000	37.667190
1741.000000	759.000000	37.823208
1742.000000	758.000000	37.981182
1743.000000	757.000000	38.120684
1744.000000	756.000000	38.260697
1745.000000	755.000000	38.403890
1746.000000	754.000000	38.513705
1747.000000	753.000000	38.625064
1748.000000	752.000000	38.723318
1749.000000	751.000000	38.807811
1750.000000	750.000000	38.880517
1751.000000	749.000000	38.937829
1752.000000	748.000000	38.992425
1753.000000	747.000000	39.027438
1754.000000	746.000000	39.061686
1755.000000	745.000000	39.085603
1756.000000	744.000000	39.104122
1757.000000	743.000000	39.118028
1758.000000	742.000000	39.130102
1759.000000	741.000000	39.129107
1760.000000	740.000000	39.131662
1761.000000	739.000000	39.134760
1762.000000	738.000000	39.152325
1763.000000	737.000000	39.177605
1764.000000	736.000000	39.200026
1765.000000	735.000000	39.236756
1766.000000	734.000000	39.307925
1767.000000	733.000000	39.376754
1768.000000	732.000000	39.453536
1769.000000	731.000000	39.530775
1770.000000	730.000000	39.623988
1771.000000	729.000000	39.712174
1772.000000	728.000000	39.814073
1773.000000	727.000000	39.907763
1774.000000	726.000000	39.985087
1775.000000	725.000000	40.074291
1776.000000	724.000000	40.155099
1777.000000	723.000000	40.245495
1778.000000	722.000000	40.322411
1779.000000	721.000000	40.391023
1780.000000	720.000000	40.450989
1781.000000	719.000000	40.504083
1782.000000	718.000000	40.551389
1783.000000	717.000000	40.591852
1784.000000	716.000000	40.629365
1785.000000	715.000000	40.675079
1786.000000	714.000000	40.705756
1787.000000	713.000000	40.734992
1788.000000	712.000000	40.760344
1789.000000	711.000000	40.773220
1790.000000	710.000000	40.798620
1791.000000	709.000000	40.829663
1792.000000	708.000000	40.867715
1793.000000	707.000000	40.896020
1794.000000	706.000000	40.926865
1795.000000	705.000000	40.962200
1796.000000	704.000000	41.002694
1797.000000	703.000000	41.029238
1798.000000	702.000000	41.055634
1799.000000	701.000000	41.078361
1800.000000	700.000000	41.118503
1801.000000	699.000000	41.183383
1802.000000	698.000000	41.231525
1803.000000	697.000000	41.246965
1804.000000	696.000000	41.253858
1805.000000	695.000000	41.279515
1806.000000	694.000000	41.335949
1807.000000	693.000000	41.384296
1808.000000	692.000000	41.409076
1809.000000	691.000000	41.423847
1810.000000	690.000000	41.445528
1811.000000	689.000000	41.507302
1812.000000	688.000000	41.559535
1813.000000	687.000000	41.574093
1814.000000	686.000000	41.573668
1815.000000	685.000000	41.585558
1816.000000	684.000000	41.611963
1817.000000	683.000000	41.607291
1818.000000	682.000000	41.599695
1819.000000	681.000000	41.616959
1820.000000	680.000000	41.673364
1821.000000	679.000000	41.733261
1822.000000	678.000000	41.756230
1823.000000	677.000000	41.719583
1824.000000	676.000000	41.661208
1825.000000	675.000000	41.655771
1826.000000	674.000000	41.698545
1827.000000	673.000000	41.752528
1828.000000	672.000000	41.818626
1829.000000	671.000000	41.889962
1830.000000	670.000000	41.947306
1831.000000	669.000000	42.008165
1832.000000	668.000000	42.042923
1833.000000	667.000000	42.066239
1834.000000	666.000000	42.106426
1835.000000	665.000000	42.177804
1836.000000	664.000000	42.268878
1837.000000	663.000000	42.357048
1838.000000	662.000000	42.422720
1839.000000	661.000000	42.457084
1840.000000	660.000000	42.509322
1841.000000	659.000000	42.573400
1842.000000	658.000000	42.626362
1843.000000	657.000000	42.621689
1844.000000	656.000000	42.573498
1845.000000	655.000000	42.555428
1846.000000	654.000000	42.578455
1847.000000	653.000000	42.666206
1848.000000	652.000000	42.783087
1849.000000	651.000000	42.849475
1850.000000	650.000000	42.822944
1851.000000	649.000000	42.751960
1852.000000	648.000000	42.696659
1853.000000	647.000000	42.690969
1854.000000	646.000000	42.734117
1855.000000	645.000000	42.752861
1856.000000	644.000000	42.734366
1857.000000	643.000000	42.709631
1858.000000	642.000000	42.682756
1859.000000	641.000000	42.661480
1860.000000	640.000000	42.633526
1861.000000	639.000000	42.570974
1862.000000	638.000000	42.492169
1863.000000	637.000000	42.396805
1864.000000	636.000000	42.298540
1865.000000	635.000000	42.209018
1866.000000	634.000000	42.136417
1867.000000	633.000000	42.075897
1868.000000	632.000000	42.022933
1869.000000	631.000000	41.927422
1870.000000	630.000000	41.817916
1871.000000	629.000000	41.726974
1872.000000	628.000000	41.569654
1873.000000	627.000000	41.370668
1874.000000	626.000000	41.141958
1875.000000	625.000000	40.883437
1876.000000	624.000000	40.609174
1877.000000	623.000000	40.323115
1878.000000	622.000000	40.022341
1879.000000	621.000000	39.690198
1880.000000	620.000000	39.344471
1881.000000	619.000000	39.004083
1882.000000	618.000000	38.626365
1883.000000	617.000000	38.253919
1884.000000	616.000000	37.853235
1885.000000	615.000000	37.416255
1886.000000	614.000000	36.958564
1887.000000	613.000000	36.529374
1888.000000	612.000000	36.107742
1889.000000	611.000000	35.651419
1890.000000	610.000000	35.231196
1891.000000	609.000000	34.784955
1892.000000	608.000000	34.313205
1893.000000	607.000000	33.815694
1894.000000	606.000000	33.342006
1895.000000	605.000000	32.890708
1896.000000	604.000000	32.453054
1897.000000	603.000000	32.042277
1898.000000	602.000000	31.589405
1899.000000	601.000000	31.150016
1900.000000	600.000000	30.725233
1901.000000	599.000000	30.272228
1902.000000	598.000000	29.856885
1903.000000	597.000000	29.458011
1904.000000	596.000000	29.067674
1905.000000	595.000000	28.667851
1906.000000	594.000000	28.267989
1907.000000	593.000000	27.871925
1908.000000	592.000000	27.488880
1909.000000	591.000000	27.156235
1910.000000	590.000000	26.845804
1911.000000	589.000000	26.543472
1912.000000	588.000000	26.255649
1913.000000	587.000000	25.980828
1914.000000	586.000000	25.710954
1915.000000	585.000000	25.417552
1916.000000	584.000000	25.150938
1917.000000	583.000000	24.910546
1918.000000	582.000000	24.677599
1919.000000	581.000000	24.460529
1920.000000	580.000000	24.271938
1921.000000	579.000000	24.093218
1922.000000	578.000000	23.893765
1923.000000	577.000000	23.708846
1924.000000	576.000000	23.556950
1925.000000	575.000000	23.402516
1926.000000	574.000000	23.253753
1927.000000	573.000000	23.134328
1928.000000	572.000000	23.026140
1929.000000	571.000000	22.923487
1930.000000	570.000000	22.826800
1931.000000	569.000000	22.745161
1932.000000	568.000000	22.670103
1933.000000	567.000000	22.603085
1934.000000	566.000000	22.539131
1935.000000	565.000000	22.493280
1936.000000	564.000000	22.465563
1937.000000	563.000000	22.451325
1938.000000	562.000000	22.450888
1939.000000	561.000000	22.463749
1940.000000	560.000000	22.469575
1941.000000	559.000000	22.483331
1942.000000	558.000000	22.508809
1943.000000	557.000000	22.511280
1944.000000	556.000000	22.548120
1945.000000	555.000000	22.603505
1946.000000	554.000000	22.650745
1947.000000	553.000000	22.712323
1948.000000	552.000000	22.782115
1949.000000	551.000000	22.837418
1950.000000	550.000000	22.894687
1951.000000	549.000000	22.958127
1952.000000	548.000000	23.028548
1953.000000	547.000000	23.112289
1954.000000	546.000000	23.198997
1955.000000	545.000000	23.291498
1956.000000	544.000000	23.365824
1957.000000	543.000000	23.452782
1958.000000	542.000000	23.534259
1959.000000	541.000000	23.608012
1960.000000	540.000000	23.700019
1961.000000	539.000000	23.778895
1962.000000	538.000000	23.867010
1963.000000	537.000000	23.958651
1964.000000	536.000000	24.015819
1965.000000	535.000000	24.113843
1966.000000	534.000000	24.173092
1967.000000	533.000000	24.250692
1968.000000	532.000000	24.331924
1969.000000	531.000000	24.411301
1970.000000	530.000000	24.501993
1971.000000	529.000000	24.571242
1972.000000	528.000000	24.664546
1973.000000	527.000000	24.734210
1974.000000	526.000000	24.827103
1975.000000	525.000000	24.899578
1976.000000	524.000000	24.986463
1977.000000	523.000000	25.075264
1978.000000	522.000000	25.154318
1979.000000	521.000000	25.255549
1980.000000	520.000000	25.343647
1981.000000	519.000000	25.439415
1982.000000	518.000000	25.529791
1983.000000	517.000000	25.621035
1984.000000	516.000000	25.707237
1985.000000	515.000000	25.802960
1986.000000	514.000000	25.887867
1987.000000	513.000000	25.969129
1988.000000	512.000000	26.064786
1989.000000	511.000000	26.156114
1990.000000	510.000000	26.233465
1991.000000	509.000000	26.308485
1992.000000	508.000000	26.378220
1993.000000	507.000000	26.455289
1994.000000	506.000000	26.534851
1995.000000	505.000000	26.599091
1996.000000	504.000000	26.659986
1997.000000	503.000000	26.710624
1998.000000	502.000000	26.767762
1999.000000	501.000000	26.818863
