PE UV       SUBTECH     SPECTRUM    ASCII       PEDS        4.00        
   -1
CICIMAUCR0104-3.Sample.ASC
24/04/04
11:30:21.00
24/04/04
11:30:21.00
Vinicio Soto Monge
C. resplendens
250,000000
1
Lambda 1050
1050L1511233
PerkinElmer UV WinLab 6.3.2.0749 / 2.02.05 Lambda 900 UV/VIS/NIR, Aug  7 2015 09:38:08

0
0
3350/servo 860,8/2
0
0
UV/VIS
1
1
1
DoubleDePol,CommonBeamDepol,RBeamAtt,SBeamAtt,60mm sphere, WB InGaAs Detector
0
0
0
0
Program
Program
3350/servo 860,8/2
3350/0,2 860,8/0,2
3350/0,2 860,8/0,2
0
15.00
 
 
 
0
 
860,8
319,2
860,8
Front
100
on
S:100 R:100
0
0
0
0
 
0
 
 
 
0
 
 
0
0
0
0
0
 
 
 
 
0
0


0
0
#HDR
-1
-1
#GR
nm
%R
1.0
0.0
2500,000000
-1,000000
2251
8
72,628200
5,074300
#DATA
250.000000	2250.000000	5.885367
251.000000	2249.000000	5.881967
252.000000	2248.000000	5.864600
253.000000	2247.000000	5.849800
254.000000	2246.000000	5.826500
255.000000	2245.000000	5.858767
256.000000	2244.000000	5.834400
257.000000	2243.000000	5.794367
258.000000	2242.000000	5.811567
259.000000	2241.000000	5.804133
260.000000	2240.000000	5.788433
261.000000	2239.000000	5.766100
262.000000	2238.000000	5.744267
263.000000	2237.000000	5.710200
264.000000	2236.000000	5.709267
265.000000	2235.000000	5.663900
266.000000	2234.000000	5.673733
267.000000	2233.000000	5.651967
268.000000	2232.000000	5.651567
269.000000	2231.000000	5.612633
270.000000	2230.000000	5.642833
271.000000	2229.000000	5.643500
272.000000	2228.000000	5.622300
273.000000	2227.000000	5.614967
274.000000	2226.000000	5.605900
275.000000	2225.000000	5.592400
276.000000	2224.000000	5.603267
277.000000	2223.000000	5.606567
278.000000	2222.000000	5.574533
279.000000	2221.000000	5.588367
280.000000	2220.000000	5.578900
281.000000	2219.000000	5.588900
282.000000	2218.000000	5.566600
283.000000	2217.000000	5.562333
284.000000	2216.000000	5.551600
285.000000	2215.000000	5.534733
286.000000	2214.000000	5.536533
287.000000	2213.000000	5.524333
288.000000	2212.000000	5.547167
289.000000	2211.000000	5.511800
290.000000	2210.000000	5.507267
291.000000	2209.000000	5.505267
292.000000	2208.000000	5.481733
293.000000	2207.000000	5.463200
294.000000	2206.000000	5.486767
295.000000	2205.000000	5.483633
296.000000	2204.000000	5.450467
297.000000	2203.000000	5.441600
298.000000	2202.000000	5.453967
299.000000	2201.000000	5.435300
300.000000	2200.000000	5.437467
301.000000	2199.000000	5.427367
302.000000	2198.000000	5.428700
303.000000	2197.000000	5.446633
304.000000	2196.000000	5.442467
305.000000	2195.000000	5.432000
306.000000	2194.000000	5.437500
307.000000	2193.000000	5.403633
308.000000	2192.000000	5.385333
309.000000	2191.000000	5.393800
310.000000	2190.000000	5.395900
311.000000	2189.000000	5.409533
312.000000	2188.000000	5.374767
313.000000	2187.000000	5.362900
314.000000	2186.000000	5.366400
315.000000	2185.000000	5.359167
316.000000	2184.000000	5.373933
317.000000	2183.000000	5.498467
318.000000	2182.000000	5.369633
319.000000	2181.000000	5.437300
320.000000	2180.000000	5.422300
321.000000	2179.000000	5.460000
322.000000	2178.000000	5.472100
323.000000	2177.000000	5.396200
324.000000	2176.000000	5.495500
325.000000	2175.000000	5.455033
326.000000	2174.000000	5.390433
327.000000	2173.000000	5.339967
328.000000	2172.000000	5.411533
329.000000	2171.000000	5.374300
330.000000	2170.000000	5.341233
331.000000	2169.000000	5.411700
332.000000	2168.000000	5.354700
333.000000	2167.000000	5.355033
334.000000	2166.000000	5.405133
335.000000	2165.000000	5.421700
336.000000	2164.000000	5.397733
337.000000	2163.000000	5.427833
338.000000	2162.000000	5.469533
339.000000	2161.000000	5.387533
340.000000	2160.000000	5.426833
341.000000	2159.000000	5.418067
342.000000	2158.000000	5.424667
343.000000	2157.000000	5.448633
344.000000	2156.000000	5.475100
345.000000	2155.000000	5.481233
346.000000	2154.000000	5.477533
347.000000	2153.000000	5.463700
348.000000	2152.000000	5.504600
349.000000	2151.000000	5.538500
350.000000	2150.000000	5.496300
351.000000	2149.000000	5.504833
352.000000	2148.000000	5.589033
353.000000	2147.000000	5.566667
354.000000	2146.000000	5.614467
355.000000	2145.000000	5.621133
356.000000	2144.000000	5.645200
357.000000	2143.000000	5.675767
358.000000	2142.000000	5.732167
359.000000	2141.000000	5.715233
360.000000	2140.000000	5.793267
361.000000	2139.000000	5.789500
362.000000	2138.000000	5.773633
363.000000	2137.000000	5.822267
364.000000	2136.000000	5.896100
365.000000	2135.000000	5.887633
366.000000	2134.000000	5.876000
367.000000	2133.000000	5.900467
368.000000	2132.000000	5.918167
369.000000	2131.000000	5.968467
370.000000	2130.000000	5.970000
371.000000	2129.000000	5.984700
372.000000	2128.000000	6.040400
373.000000	2127.000000	6.102500
374.000000	2126.000000	6.190700
375.000000	2125.000000	6.170400
376.000000	2124.000000	6.214200
377.000000	2123.000000	6.310500
378.000000	2122.000000	6.371067
379.000000	2121.000000	6.440500
380.000000	2120.000000	6.522933
381.000000	2119.000000	6.615233
382.000000	2118.000000	6.704967
383.000000	2117.000000	6.805100
384.000000	2116.000000	6.923100
385.000000	2115.000000	7.048600
386.000000	2114.000000	7.181533
387.000000	2113.000000	7.325233
388.000000	2112.000000	7.468833
389.000000	2111.000000	7.638933
390.000000	2110.000000	7.813300
391.000000	2109.000000	8.004367
392.000000	2108.000000	8.222600
393.000000	2107.000000	8.444200
394.000000	2106.000000	8.689433
395.000000	2105.000000	8.951133
396.000000	2104.000000	9.223300
397.000000	2103.000000	9.510633
398.000000	2102.000000	9.811633
399.000000	2101.000000	10.133567
400.000000	2100.000000	10.462567
401.000000	2099.000000	10.805967
402.000000	2098.000000	11.162000
403.000000	2097.000000	11.534167
404.000000	2096.000000	11.917567
405.000000	2095.000000	12.300333
406.000000	2094.000000	12.703533
407.000000	2093.000000	13.110333
408.000000	2092.000000	13.520533
409.000000	2091.000000	13.927967
410.000000	2090.000000	14.334533
411.000000	2089.000000	14.754667
412.000000	2088.000000	15.186867
413.000000	2087.000000	15.606367
414.000000	2086.000000	16.016933
415.000000	2085.000000	16.417600
416.000000	2084.000000	16.809767
417.000000	2083.000000	17.201800
418.000000	2082.000000	17.575933
419.000000	2081.000000	17.949333
420.000000	2080.000000	18.322033
421.000000	2079.000000	18.675033
422.000000	2078.000000	19.015000
423.000000	2077.000000	19.344300
424.000000	2076.000000	19.666500
425.000000	2075.000000	19.966067
426.000000	2074.000000	20.260433
427.000000	2073.000000	20.549633
428.000000	2072.000000	20.816167
429.000000	2071.000000	21.070567
430.000000	2070.000000	21.309300
431.000000	2069.000000	21.542700
432.000000	2068.000000	21.751100
433.000000	2067.000000	21.951600
434.000000	2066.000000	22.146033
435.000000	2065.000000	22.303867
436.000000	2064.000000	22.466567
437.000000	2063.000000	22.618633
438.000000	2062.000000	22.746300
439.000000	2061.000000	22.853500
440.000000	2060.000000	22.940100
441.000000	2059.000000	23.010967
442.000000	2058.000000	23.078400
443.000000	2057.000000	23.120767
444.000000	2056.000000	23.123567
445.000000	2055.000000	23.124000
446.000000	2054.000000	23.099767
447.000000	2053.000000	23.050800
448.000000	2052.000000	22.985267
449.000000	2051.000000	22.896300
450.000000	2050.000000	22.798767
451.000000	2049.000000	22.687833
452.000000	2048.000000	22.546433
453.000000	2047.000000	22.386433
454.000000	2046.000000	22.231700
455.000000	2045.000000	22.068267
456.000000	2044.000000	21.898467
457.000000	2043.000000	21.717600
458.000000	2042.000000	21.546000
459.000000	2041.000000	21.400600
460.000000	2040.000000	21.271733
461.000000	2039.000000	21.150733
462.000000	2038.000000	21.071667
463.000000	2037.000000	21.025500
464.000000	2036.000000	21.008633
465.000000	2035.000000	21.040433
466.000000	2034.000000	21.114067
467.000000	2033.000000	21.228533
468.000000	2032.000000	21.397833
469.000000	2031.000000	21.604500
470.000000	2030.000000	21.854700
471.000000	2029.000000	22.144600
472.000000	2028.000000	22.478733
473.000000	2027.000000	22.849900
474.000000	2026.000000	23.247800
475.000000	2025.000000	23.670600
476.000000	2024.000000	24.107733
477.000000	2023.000000	24.546900
478.000000	2022.000000	24.985533
479.000000	2021.000000	25.431267
480.000000	2020.000000	25.879067
481.000000	2019.000000	26.303933
482.000000	2018.000000	26.703067
483.000000	2017.000000	27.081033
484.000000	2016.000000	27.426833
485.000000	2015.000000	27.743100
486.000000	2014.000000	28.021967
487.000000	2013.000000	28.271600
488.000000	2012.000000	28.485533
489.000000	2011.000000	28.673500
490.000000	2010.000000	28.819467
491.000000	2009.000000	28.940267
492.000000	2008.000000	29.031633
493.000000	2007.000000	29.096233
494.000000	2006.000000	29.128633
495.000000	2005.000000	29.142300
496.000000	2004.000000	29.138100
497.000000	2003.000000	29.136067
498.000000	2002.000000	29.119200
499.000000	2001.000000	29.104967
500.000000	2000.000000	29.096367
501.000000	1999.000000	29.103267
502.000000	1998.000000	29.115133
503.000000	1997.000000	29.167133
504.000000	1996.000000	29.235567
505.000000	1995.000000	29.344100
506.000000	1994.000000	29.507033
507.000000	1993.000000	29.723333
508.000000	1992.000000	29.997133
509.000000	1991.000000	30.332467
510.000000	1990.000000	30.735700
511.000000	1989.000000	31.204767
512.000000	1988.000000	31.743467
513.000000	1987.000000	32.353433
514.000000	1986.000000	33.039967
515.000000	1985.000000	33.787133
516.000000	1984.000000	34.586733
517.000000	1983.000000	35.451467
518.000000	1982.000000	36.355700
519.000000	1981.000000	37.319333
520.000000	1980.000000	38.334200
521.000000	1979.000000	39.394767
522.000000	1978.000000	40.485800
523.000000	1977.000000	41.593500
524.000000	1976.000000	42.733467
525.000000	1975.000000	43.875133
526.000000	1974.000000	45.004233
527.000000	1973.000000	46.151800
528.000000	1972.000000	47.276167
529.000000	1971.000000	48.393000
530.000000	1970.000000	49.504133
531.000000	1969.000000	50.595533
532.000000	1968.000000	51.669800
533.000000	1967.000000	52.704567
534.000000	1966.000000	53.713800
535.000000	1965.000000	54.720000
536.000000	1964.000000	55.681233
537.000000	1963.000000	56.596367
538.000000	1962.000000	57.490033
539.000000	1961.000000	58.362467
540.000000	1960.000000	59.199200
541.000000	1959.000000	60.011867
542.000000	1958.000000	60.800300
543.000000	1957.000000	61.559167
544.000000	1956.000000	62.265067
545.000000	1955.000000	62.944333
546.000000	1954.000000	63.591733
547.000000	1953.000000	64.207367
548.000000	1952.000000	64.769167
549.000000	1951.000000	65.335833
550.000000	1950.000000	65.887367
551.000000	1949.000000	66.378333
552.000000	1948.000000	66.883667
553.000000	1947.000000	67.336267
554.000000	1946.000000	67.776833
555.000000	1945.000000	68.200933
556.000000	1944.000000	68.615667
557.000000	1943.000000	68.989433
558.000000	1942.000000	69.366033
559.000000	1941.000000	69.714267
560.000000	1940.000000	70.170233
561.000000	1939.000000	70.484267
562.000000	1938.000000	70.813433
563.000000	1937.000000	71.100833
564.000000	1936.000000	71.359033
565.000000	1935.000000	71.601367
566.000000	1934.000000	71.829400
567.000000	1933.000000	72.051333
568.000000	1932.000000	72.242800
569.000000	1931.000000	72.461833
570.000000	1930.000000	72.629033
571.000000	1929.000000	72.809000
572.000000	1928.000000	72.991467
573.000000	1927.000000	73.124733
574.000000	1926.000000	73.291500
575.000000	1925.000000	73.425900
576.000000	1924.000000	73.567700
577.000000	1923.000000	73.688333
578.000000	1922.000000	73.821900
579.000000	1921.000000	73.904267
580.000000	1920.000000	74.002100
581.000000	1919.000000	74.066000
582.000000	1918.000000	74.120367
583.000000	1917.000000	74.211467
584.000000	1916.000000	74.225800
585.000000	1915.000000	74.250000
586.000000	1914.000000	74.226200
587.000000	1913.000000	74.248700
588.000000	1912.000000	74.211467
589.000000	1911.000000	74.185367
590.000000	1910.000000	74.123200
591.000000	1909.000000	74.061100
592.000000	1908.000000	73.996500
593.000000	1907.000000	73.902333
594.000000	1906.000000	73.752833
595.000000	1905.000000	73.634833
596.000000	1904.000000	73.474367
597.000000	1903.000000	73.337767
598.000000	1902.000000	73.158800
599.000000	1901.000000	72.923433
600.000000	1900.000000	72.720867
601.000000	1899.000000	72.457267
602.000000	1898.000000	72.215300
603.000000	1897.000000	71.911033
604.000000	1896.000000	71.610033
605.000000	1895.000000	71.272133
606.000000	1894.000000	70.920467
607.000000	1893.000000	70.575667
608.000000	1892.000000	70.131867
609.000000	1891.000000	69.700100
610.000000	1890.000000	69.280567
611.000000	1889.000000	68.803967
612.000000	1888.000000	68.276133
613.000000	1887.000000	67.750033
614.000000	1886.000000	67.202433
615.000000	1885.000000	66.629300
616.000000	1884.000000	66.012233
617.000000	1883.000000	65.395900
618.000000	1882.000000	64.759467
619.000000	1881.000000	64.067133
620.000000	1880.000000	63.386000
621.000000	1879.000000	62.660967
622.000000	1878.000000	61.894800
623.000000	1877.000000	61.128233
624.000000	1876.000000	60.307800
625.000000	1875.000000	59.464567
626.000000	1874.000000	58.656033
627.000000	1873.000000	57.778100
628.000000	1872.000000	56.898967
629.000000	1871.000000	56.009967
630.000000	1870.000000	55.121033
631.000000	1869.000000	54.219400
632.000000	1868.000000	53.363833
633.000000	1867.000000	52.523367
634.000000	1866.000000	51.690200
635.000000	1865.000000	50.996900
636.000000	1864.000000	50.309433
637.000000	1863.000000	49.736167
638.000000	1862.000000	49.219933
639.000000	1861.000000	48.778567
640.000000	1860.000000	48.399233
641.000000	1859.000000	48.134067
642.000000	1858.000000	47.954133
643.000000	1857.000000	47.862267
644.000000	1856.000000	47.858133
645.000000	1855.000000	47.946600
646.000000	1854.000000	48.090300
647.000000	1853.000000	48.333667
648.000000	1852.000000	48.627333
649.000000	1851.000000	48.967000
650.000000	1850.000000	49.386367
651.000000	1849.000000	49.824033
652.000000	1848.000000	50.320533
653.000000	1847.000000	50.835467
654.000000	1846.000000	51.366300
655.000000	1845.000000	51.905200
656.000000	1844.000000	52.467167
657.000000	1843.000000	53.006600
658.000000	1842.000000	53.556567
659.000000	1841.000000	54.097200
660.000000	1840.000000	54.604833
661.000000	1839.000000	55.124400
662.000000	1838.000000	55.636133
663.000000	1837.000000	56.125967
664.000000	1836.000000	56.568200
665.000000	1835.000000	57.017333
666.000000	1834.000000	57.426833
667.000000	1833.000000	57.787133
668.000000	1832.000000	58.128233
669.000000	1831.000000	58.470800
670.000000	1830.000000	58.817433
671.000000	1829.000000	59.092500
672.000000	1828.000000	59.380633
673.000000	1827.000000	59.654867
674.000000	1826.000000	59.899667
675.000000	1825.000000	60.101100
676.000000	1824.000000	60.293600
677.000000	1823.000000	60.501867
678.000000	1822.000000	60.677867
679.000000	1821.000000	60.835333
680.000000	1820.000000	60.987200
681.000000	1819.000000	61.110567
682.000000	1818.000000	61.216233
683.000000	1817.000000	61.325833
684.000000	1816.000000	61.402967
685.000000	1815.000000	61.488033
686.000000	1814.000000	61.535767
687.000000	1813.000000	61.611000
688.000000	1812.000000	61.682300
689.000000	1811.000000	61.760267
690.000000	1810.000000	61.823800
691.000000	1809.000000	61.901900
692.000000	1808.000000	61.958967
693.000000	1807.000000	62.044100
694.000000	1806.000000	62.127200
695.000000	1805.000000	62.222333
696.000000	1804.000000	62.323800
697.000000	1803.000000	62.406100
698.000000	1802.000000	62.518433
699.000000	1801.000000	62.640067
700.000000	1800.000000	62.769633
701.000000	1799.000000	62.922533
702.000000	1798.000000	63.090433
703.000000	1797.000000	63.255700
704.000000	1796.000000	63.410133
705.000000	1795.000000	63.599600
706.000000	1794.000000	63.807567
707.000000	1793.000000	64.036533
708.000000	1792.000000	64.273867
709.000000	1791.000000	64.554900
710.000000	1790.000000	64.786600
711.000000	1789.000000	65.039933
712.000000	1788.000000	65.293433
713.000000	1787.000000	65.577533
714.000000	1786.000000	65.905867
715.000000	1785.000000	66.184700
716.000000	1784.000000	66.474800
717.000000	1783.000000	66.784533
718.000000	1782.000000	67.102767
719.000000	1781.000000	67.398667
720.000000	1780.000000	67.719933
721.000000	1779.000000	68.000833
722.000000	1778.000000	68.310233
723.000000	1777.000000	68.636900
724.000000	1776.000000	68.912967
725.000000	1775.000000	69.187067
726.000000	1774.000000	69.465700
727.000000	1773.000000	69.695400
728.000000	1772.000000	69.919600
729.000000	1771.000000	70.153833
730.000000	1770.000000	70.350167
731.000000	1769.000000	70.591900
732.000000	1768.000000	70.817200
733.000000	1767.000000	71.004700
734.000000	1766.000000	71.175533
735.000000	1765.000000	71.315833
736.000000	1764.000000	71.425933
737.000000	1763.000000	71.578333
738.000000	1762.000000	71.738833
739.000000	1761.000000	71.866233
740.000000	1760.000000	72.010867
741.000000	1759.000000	72.165900
742.000000	1758.000000	72.233400
743.000000	1757.000000	72.301533
744.000000	1756.000000	72.425133
745.000000	1755.000000	72.514933
746.000000	1754.000000	72.590233
747.000000	1753.000000	72.653467
748.000000	1752.000000	72.750000
749.000000	1751.000000	72.828867
750.000000	1750.000000	72.862133
751.000000	1749.000000	72.894567
752.000000	1748.000000	72.942867
753.000000	1747.000000	73.014233
754.000000	1746.000000	73.110400
755.000000	1745.000000	73.129767
756.000000	1744.000000	73.128067
757.000000	1743.000000	73.190233
758.000000	1742.000000	73.203733
759.000000	1741.000000	73.215400
760.000000	1740.000000	73.235667
761.000000	1739.000000	73.274567
762.000000	1738.000000	73.265400
763.000000	1737.000000	73.239267
764.000000	1736.000000	73.221300
765.000000	1735.000000	73.133200
766.000000	1734.000000	73.092367
767.000000	1733.000000	73.065500
768.000000	1732.000000	73.043333
769.000000	1731.000000	73.012167
770.000000	1730.000000	72.919433
771.000000	1729.000000	72.877200
772.000000	1728.000000	72.759900
773.000000	1727.000000	72.693067
774.000000	1726.000000	72.639867
775.000000	1725.000000	72.537200
776.000000	1724.000000	72.395333
777.000000	1723.000000	72.366700
778.000000	1722.000000	72.338667
779.000000	1721.000000	72.248133
780.000000	1720.000000	72.139733
781.000000	1719.000000	72.044300
782.000000	1718.000000	72.027533
783.000000	1717.000000	71.928467
784.000000	1716.000000	71.846233
785.000000	1715.000000	71.798467
786.000000	1714.000000	71.750567
787.000000	1713.000000	71.707933
788.000000	1712.000000	71.633567
789.000000	1711.000000	71.587533
790.000000	1710.000000	71.595567
791.000000	1709.000000	71.543933
792.000000	1708.000000	71.523500
793.000000	1707.000000	71.474100
794.000000	1706.000000	71.435900
795.000000	1705.000000	71.426267
796.000000	1704.000000	71.307433
797.000000	1703.000000	71.205300
798.000000	1702.000000	71.119700
799.000000	1701.000000	71.046900
800.000000	1700.000000	70.905567
801.000000	1699.000000	70.789133
802.000000	1698.000000	70.653167
803.000000	1697.000000	70.504967
804.000000	1696.000000	70.444233
805.000000	1695.000000	70.276733
806.000000	1694.000000	70.130633
807.000000	1693.000000	69.938633
808.000000	1692.000000	69.784167
809.000000	1691.000000	69.572600
810.000000	1690.000000	69.370733
811.000000	1689.000000	69.108167
812.000000	1688.000000	68.937167
813.000000	1687.000000	68.656200
814.000000	1686.000000	68.514833
815.000000	1685.000000	68.273033
816.000000	1684.000000	68.059433
817.000000	1683.000000	67.784200
818.000000	1682.000000	67.448500
819.000000	1681.000000	67.230000
820.000000	1680.000000	66.956567
821.000000	1679.000000	66.714633
822.000000	1678.000000	66.487467
823.000000	1677.000000	66.299033
824.000000	1676.000000	66.022533
825.000000	1675.000000	65.803733
826.000000	1674.000000	65.567800
827.000000	1673.000000	65.336000
828.000000	1672.000000	65.138533
829.000000	1671.000000	64.916500
830.000000	1670.000000	64.690400
831.000000	1669.000000	64.568667
832.000000	1668.000000	64.430233
833.000000	1667.000000	64.288833
834.000000	1666.000000	64.057367
835.000000	1665.000000	63.790067
836.000000	1664.000000	63.615267
837.000000	1663.000000	63.718833
838.000000	1662.000000	63.652367
839.000000	1661.000000	63.481233
840.000000	1660.000000	63.300267
841.000000	1659.000000	63.251300
842.000000	1658.000000	63.305900
843.000000	1657.000000	63.237800
844.000000	1656.000000	62.989367
845.000000	1655.000000	62.966267
846.000000	1654.000000	63.081600
847.000000	1653.000000	63.039667
848.000000	1652.000000	63.059833
849.000000	1651.000000	63.039767
850.000000	1650.000000	62.967833
851.000000	1649.000000	63.053367
852.000000	1648.000000	62.955467
853.000000	1647.000000	62.811000
854.000000	1646.000000	62.604300
855.000000	1645.000000	62.718933
856.000000	1644.000000	62.798667
857.000000	1643.000000	62.658900
858.000000	1642.000000	62.725500
859.000000	1641.000000	62.688486
860.000000	1640.000000	62.672413
861.000000	1639.000000	62.733070
862.000000	1638.000000	62.798047
863.000000	1637.000000	62.872960
864.000000	1636.000000	62.916497
865.000000	1635.000000	62.938809
866.000000	1634.000000	62.935530
867.000000	1633.000000	62.929032
868.000000	1632.000000	62.893495
869.000000	1631.000000	62.861830
870.000000	1630.000000	62.812881
871.000000	1629.000000	62.776278
872.000000	1628.000000	62.733425
873.000000	1627.000000	62.689767
874.000000	1626.000000	62.634813
875.000000	1625.000000	62.594497
876.000000	1624.000000	62.534892
877.000000	1623.000000	62.486145
878.000000	1622.000000	62.432040
879.000000	1621.000000	62.384488
880.000000	1620.000000	62.328034
881.000000	1619.000000	62.284218
882.000000	1618.000000	62.242338
883.000000	1617.000000	62.184640
884.000000	1616.000000	62.146149
885.000000	1615.000000	62.107818
886.000000	1614.000000	62.066479
887.000000	1613.000000	62.032668
888.000000	1612.000000	62.004665
889.000000	1611.000000	61.963329
890.000000	1610.000000	61.926226
891.000000	1609.000000	61.890682
892.000000	1608.000000	61.847001
893.000000	1607.000000	61.810328
894.000000	1606.000000	61.781205
895.000000	1605.000000	61.742696
896.000000	1604.000000	61.705476
897.000000	1603.000000	61.659821
898.000000	1602.000000	61.621519
899.000000	1601.000000	61.566530
900.000000	1600.000000	61.527191
901.000000	1599.000000	61.478700
902.000000	1598.000000	61.420860
903.000000	1597.000000	61.383836
904.000000	1596.000000	61.322375
905.000000	1595.000000	61.286328
906.000000	1594.000000	61.246512
907.000000	1593.000000	61.190181
908.000000	1592.000000	61.150878
909.000000	1591.000000	61.110483
910.000000	1590.000000	61.096735
911.000000	1589.000000	61.047248
912.000000	1588.000000	61.007177
913.000000	1587.000000	60.983132
914.000000	1586.000000	60.938925
915.000000	1585.000000	60.913028
916.000000	1584.000000	60.883409
917.000000	1583.000000	60.854525
918.000000	1582.000000	60.809969
919.000000	1581.000000	60.756868
920.000000	1580.000000	60.710433
921.000000	1579.000000	60.666327
922.000000	1578.000000	60.611708
923.000000	1577.000000	60.543522
924.000000	1576.000000	60.486458
925.000000	1575.000000	60.431033
926.000000	1574.000000	60.365881
927.000000	1573.000000	60.314511
928.000000	1572.000000	60.244306
929.000000	1571.000000	60.194811
930.000000	1570.000000	60.150408
931.000000	1569.000000	60.085795
932.000000	1568.000000	60.029563
933.000000	1567.000000	59.994102
934.000000	1566.000000	59.924565
935.000000	1565.000000	59.880486
936.000000	1564.000000	59.826157
937.000000	1563.000000	59.769495
938.000000	1562.000000	59.719158
939.000000	1561.000000	59.678602
940.000000	1560.000000	59.619444
941.000000	1559.000000	59.571170
942.000000	1558.000000	59.543714
943.000000	1557.000000	59.493443
944.000000	1556.000000	59.478487
945.000000	1555.000000	59.469321
946.000000	1554.000000	59.428914
947.000000	1553.000000	59.403623
948.000000	1552.000000	59.395460
949.000000	1551.000000	59.385668
950.000000	1550.000000	59.361504
951.000000	1549.000000	59.354288
952.000000	1548.000000	59.338315
953.000000	1547.000000	59.319037
954.000000	1546.000000	59.304867
955.000000	1545.000000	59.274278
956.000000	1544.000000	59.254326
957.000000	1543.000000	59.227177
958.000000	1542.000000	59.186429
959.000000	1541.000000	59.140387
960.000000	1540.000000	59.099247
961.000000	1539.000000	59.069705
962.000000	1538.000000	59.026018
963.000000	1537.000000	58.967410
964.000000	1536.000000	58.920421
965.000000	1535.000000	58.880024
966.000000	1534.000000	58.828897
967.000000	1533.000000	58.787604
968.000000	1532.000000	58.756307
969.000000	1531.000000	58.710694
970.000000	1530.000000	58.668362
971.000000	1529.000000	58.620328
972.000000	1528.000000	58.580880
973.000000	1527.000000	58.530804
974.000000	1526.000000	58.492086
975.000000	1525.000000	58.444743
976.000000	1524.000000	58.401916
977.000000	1523.000000	58.353342
978.000000	1522.000000	58.315810
979.000000	1521.000000	58.258771
980.000000	1520.000000	58.217535
981.000000	1519.000000	58.159582
982.000000	1518.000000	58.118066
983.000000	1517.000000	58.074464
984.000000	1516.000000	58.033172
985.000000	1515.000000	57.986092
986.000000	1514.000000	57.959368
987.000000	1513.000000	57.910765
988.000000	1512.000000	57.864557
989.000000	1511.000000	57.839232
990.000000	1510.000000	57.805412
991.000000	1509.000000	57.759348
992.000000	1508.000000	57.726324
993.000000	1507.000000	57.692899
994.000000	1506.000000	57.657895
995.000000	1505.000000	57.622460
996.000000	1504.000000	57.600776
997.000000	1503.000000	57.572281
998.000000	1502.000000	57.551638
999.000000	1501.000000	57.531363
1000.000000	1500.000000	57.504218
1001.000000	1499.000000	57.483363
1002.000000	1498.000000	57.469407
1003.000000	1497.000000	57.452645
1004.000000	1496.000000	57.439481
1005.000000	1495.000000	57.417073
1006.000000	1494.000000	57.395282
1007.000000	1493.000000	57.384715
1008.000000	1492.000000	57.372986
1009.000000	1491.000000	57.359395
1010.000000	1490.000000	57.340863
1011.000000	1489.000000	57.333664
1012.000000	1488.000000	57.346918
1013.000000	1487.000000	57.356011
1014.000000	1486.000000	57.358998
1015.000000	1485.000000	57.378513
1016.000000	1484.000000	57.411517
1017.000000	1483.000000	57.442877
1018.000000	1482.000000	57.475075
1019.000000	1481.000000	57.513621
1020.000000	1480.000000	57.553479
1021.000000	1479.000000	57.602381
1022.000000	1478.000000	57.657654
1023.000000	1477.000000	57.700255
1024.000000	1476.000000	57.751707
1025.000000	1475.000000	57.810238
1026.000000	1474.000000	57.863288
1027.000000	1473.000000	57.914116
1028.000000	1472.000000	57.962229
1029.000000	1471.000000	58.012095
1030.000000	1470.000000	58.060487
1031.000000	1469.000000	58.111780
1032.000000	1468.000000	58.165407
1033.000000	1467.000000	58.209507
1034.000000	1466.000000	58.255162
1035.000000	1465.000000	58.301073
1036.000000	1464.000000	58.346995
1037.000000	1463.000000	58.387326
1038.000000	1462.000000	58.423763
1039.000000	1461.000000	58.460575
1040.000000	1460.000000	58.496238
1041.000000	1459.000000	58.533776
1042.000000	1458.000000	58.562181
1043.000000	1457.000000	58.593476
1044.000000	1456.000000	58.632491
1045.000000	1455.000000	58.669427
1046.000000	1454.000000	58.702784
1047.000000	1453.000000	58.734829
1048.000000	1452.000000	58.773950
1049.000000	1451.000000	58.819893
1050.000000	1450.000000	58.861043
1051.000000	1449.000000	58.896962
1052.000000	1448.000000	58.939803
1053.000000	1447.000000	58.990846
1054.000000	1446.000000	59.041209
1055.000000	1445.000000	59.094576
1056.000000	1444.000000	59.145988
1057.000000	1443.000000	59.204578
1058.000000	1442.000000	59.254634
1059.000000	1441.000000	59.312339
1060.000000	1440.000000	59.371217
1061.000000	1439.000000	59.425847
1062.000000	1438.000000	59.491129
1063.000000	1437.000000	59.554134
1064.000000	1436.000000	59.611937
1065.000000	1435.000000	59.667763
1066.000000	1434.000000	59.723480
1067.000000	1433.000000	59.778220
1068.000000	1432.000000	59.835211
1069.000000	1431.000000	59.886382
1070.000000	1430.000000	59.948126
1071.000000	1429.000000	60.008374
1072.000000	1428.000000	60.063278
1073.000000	1427.000000	60.118844
1074.000000	1426.000000	60.169353
1075.000000	1425.000000	60.228266
1076.000000	1424.000000	60.287333
1077.000000	1423.000000	60.348230
1078.000000	1422.000000	60.407322
1079.000000	1421.000000	60.459000
1080.000000	1420.000000	60.524101
1081.000000	1419.000000	60.573574
1082.000000	1418.000000	60.629751
1083.000000	1417.000000	60.684383
1084.000000	1416.000000	60.752737
1085.000000	1415.000000	60.807254
1086.000000	1414.000000	60.864969
1087.000000	1413.000000	60.919029
1088.000000	1412.000000	60.982711
1089.000000	1411.000000	61.039700
1090.000000	1410.000000	61.087524
1091.000000	1409.000000	61.147901
1092.000000	1408.000000	61.191733
1093.000000	1407.000000	61.246605
1094.000000	1406.000000	61.298078
1095.000000	1405.000000	61.340557
1096.000000	1404.000000	61.382552
1097.000000	1403.000000	61.420331
1098.000000	1402.000000	61.463605
1099.000000	1401.000000	61.496605
1100.000000	1400.000000	61.525898
1101.000000	1399.000000	61.556235
1102.000000	1398.000000	61.579127
1103.000000	1397.000000	61.610419
1104.000000	1396.000000	61.637350
1105.000000	1395.000000	61.664768
1106.000000	1394.000000	61.693608
1107.000000	1393.000000	61.717051
1108.000000	1392.000000	61.732273
1109.000000	1391.000000	61.752445
1110.000000	1390.000000	61.773553
1111.000000	1389.000000	61.791485
1112.000000	1388.000000	61.816178
1113.000000	1387.000000	61.838419
1114.000000	1386.000000	61.843367
1115.000000	1385.000000	61.859846
1116.000000	1384.000000	61.882446
1117.000000	1383.000000	61.896146
1118.000000	1382.000000	61.900507
1119.000000	1381.000000	61.896719
1120.000000	1380.000000	61.885999
1121.000000	1379.000000	61.858703
1122.000000	1378.000000	61.834938
1123.000000	1377.000000	61.807196
1124.000000	1376.000000	61.756323
1125.000000	1375.000000	61.680713
1126.000000	1374.000000	61.620808
1127.000000	1373.000000	61.527474
1128.000000	1372.000000	61.427190
1129.000000	1371.000000	61.287599
1130.000000	1370.000000	61.122093
1131.000000	1369.000000	60.910151
1132.000000	1368.000000	60.671088
1133.000000	1367.000000	60.420261
1134.000000	1366.000000	60.198483
1135.000000	1365.000000	59.925571
1136.000000	1364.000000	59.612234
1137.000000	1363.000000	59.283841
1138.000000	1362.000000	58.947161
1139.000000	1361.000000	58.637249
1140.000000	1360.000000	58.334562
1141.000000	1359.000000	58.063915
1142.000000	1358.000000	57.771376
1143.000000	1357.000000	57.499020
1144.000000	1356.000000	57.255697
1145.000000	1355.000000	57.038548
1146.000000	1354.000000	56.879840
1147.000000	1353.000000	56.780107
1148.000000	1352.000000	56.735252
1149.000000	1351.000000	56.720877
1150.000000	1350.000000	56.709362
1151.000000	1349.000000	56.718167
1152.000000	1348.000000	56.703436
1153.000000	1347.000000	56.684115
1154.000000	1346.000000	56.609397
1155.000000	1345.000000	56.484048
1156.000000	1344.000000	56.318933
1157.000000	1343.000000	56.097342
1158.000000	1342.000000	55.853454
1159.000000	1341.000000	55.581725
1160.000000	1340.000000	55.264739
1161.000000	1339.000000	54.963852
1162.000000	1338.000000	54.631044
1163.000000	1337.000000	54.294417
1164.000000	1336.000000	53.962684
1165.000000	1335.000000	53.633146
1166.000000	1334.000000	53.280586
1167.000000	1333.000000	52.950182
1168.000000	1332.000000	52.630235
1169.000000	1331.000000	52.303351
1170.000000	1330.000000	51.981038
1171.000000	1329.000000	51.655280
1172.000000	1328.000000	51.341522
1173.000000	1327.000000	51.034536
1174.000000	1326.000000	50.753605
1175.000000	1325.000000	50.466112
1176.000000	1324.000000	50.185629
1177.000000	1323.000000	49.886058
1178.000000	1322.000000	49.530238
1179.000000	1321.000000	49.151127
1180.000000	1320.000000	48.706823
1181.000000	1319.000000	48.227668
1182.000000	1318.000000	47.752151
1183.000000	1317.000000	47.324153
1184.000000	1316.000000	47.007893
1185.000000	1315.000000	46.783244
1186.000000	1314.000000	46.673916
1187.000000	1313.000000	46.689553
1188.000000	1312.000000	46.836731
1189.000000	1311.000000	47.098937
1190.000000	1310.000000	47.438290
1191.000000	1309.000000	47.841257
1192.000000	1308.000000	48.276224
1193.000000	1307.000000	48.693724
1194.000000	1306.000000	49.076048
1195.000000	1305.000000	49.371989
1196.000000	1304.000000	49.631871
1197.000000	1303.000000	49.825196
1198.000000	1302.000000	49.979570
1199.000000	1301.000000	50.107853
1200.000000	1300.000000	50.200093
1201.000000	1299.000000	50.259556
1202.000000	1298.000000	50.300748
1203.000000	1297.000000	50.351653
1204.000000	1296.000000	50.392261
1205.000000	1295.000000	50.423110
1206.000000	1294.000000	50.486327
1207.000000	1293.000000	50.553297
1208.000000	1292.000000	50.641754
1209.000000	1291.000000	50.731005
1210.000000	1290.000000	50.837405
1211.000000	1289.000000	50.932575
1212.000000	1288.000000	51.057917
1213.000000	1287.000000	51.170196
1214.000000	1286.000000	51.288592
1215.000000	1285.000000	51.411318
1216.000000	1284.000000	51.519241
1217.000000	1283.000000	51.649671
1218.000000	1282.000000	51.784794
1219.000000	1281.000000	51.919461
1220.000000	1280.000000	52.061704
1221.000000	1279.000000	52.201033
1222.000000	1278.000000	52.357598
1223.000000	1277.000000	52.515611
1224.000000	1276.000000	52.672491
1225.000000	1275.000000	52.829053
1226.000000	1274.000000	52.991850
1227.000000	1273.000000	53.150501
1228.000000	1272.000000	53.316283
1229.000000	1271.000000	53.467839
1230.000000	1270.000000	53.619703
1231.000000	1269.000000	53.779273
1232.000000	1268.000000	53.930691
1233.000000	1267.000000	54.080089
1234.000000	1266.000000	54.223913
1235.000000	1265.000000	54.358793
1236.000000	1264.000000	54.491511
1237.000000	1263.000000	54.618672
1238.000000	1262.000000	54.744499
1239.000000	1261.000000	54.869372
1240.000000	1260.000000	54.987630
1241.000000	1259.000000	55.108429
1242.000000	1258.000000	55.214798
1243.000000	1257.000000	55.343988
1244.000000	1256.000000	55.461904
1245.000000	1255.000000	55.571291
1246.000000	1254.000000	55.679899
1247.000000	1253.000000	55.785460
1248.000000	1252.000000	55.896576
1249.000000	1251.000000	55.998137
1250.000000	1250.000000	56.094586
1251.000000	1249.000000	56.187327
1252.000000	1248.000000	56.265792
1253.000000	1247.000000	56.343140
1254.000000	1246.000000	56.426276
1255.000000	1245.000000	56.495593
1256.000000	1244.000000	56.561992
1257.000000	1243.000000	56.635555
1258.000000	1242.000000	56.687206
1259.000000	1241.000000	56.743314
1260.000000	1240.000000	56.806913
1261.000000	1239.000000	56.861800
1262.000000	1238.000000	56.914014
1263.000000	1237.000000	56.969846
1264.000000	1236.000000	57.015001
1265.000000	1235.000000	57.065035
1266.000000	1234.000000	57.116867
1267.000000	1233.000000	57.160057
1268.000000	1232.000000	57.198585
1269.000000	1231.000000	57.245094
1270.000000	1230.000000	57.288318
1271.000000	1229.000000	57.327729
1272.000000	1228.000000	57.361305
1273.000000	1227.000000	57.394464
1274.000000	1226.000000	57.432374
1275.000000	1225.000000	57.479778
1276.000000	1224.000000	57.524787
1277.000000	1223.000000	57.574001
1278.000000	1222.000000	57.629295
1279.000000	1221.000000	57.689106
1280.000000	1220.000000	57.754515
1281.000000	1219.000000	57.816366
1282.000000	1218.000000	57.884818
1283.000000	1217.000000	57.950880
1284.000000	1216.000000	58.016481
1285.000000	1215.000000	58.081207
1286.000000	1214.000000	58.150784
1287.000000	1213.000000	58.212992
1288.000000	1212.000000	58.266429
1289.000000	1211.000000	58.318253
1290.000000	1210.000000	58.367383
1291.000000	1209.000000	58.405814
1292.000000	1208.000000	58.438041
1293.000000	1207.000000	58.463737
1294.000000	1206.000000	58.491606
1295.000000	1205.000000	58.515743
1296.000000	1204.000000	58.526490
1297.000000	1203.000000	58.537038
1298.000000	1202.000000	58.551600
1299.000000	1201.000000	58.563019
1300.000000	1200.000000	58.568135
1301.000000	1199.000000	58.571899
1302.000000	1198.000000	58.573169
1303.000000	1197.000000	58.566368
1304.000000	1196.000000	58.560458
1305.000000	1195.000000	58.545199
1306.000000	1194.000000	58.521117
1307.000000	1193.000000	58.491975
1308.000000	1192.000000	58.458867
1309.000000	1191.000000	58.421425
1310.000000	1190.000000	58.381414
1311.000000	1189.000000	58.328717
1312.000000	1188.000000	58.271624
1313.000000	1187.000000	58.219032
1314.000000	1186.000000	58.150993
1315.000000	1185.000000	58.080727
1316.000000	1184.000000	58.008887
1317.000000	1183.000000	57.932717
1318.000000	1182.000000	57.862937
1319.000000	1181.000000	57.785045
1320.000000	1180.000000	57.698691
1321.000000	1179.000000	57.603079
1322.000000	1178.000000	57.510710
1323.000000	1177.000000	57.411475
1324.000000	1176.000000	57.304768
1325.000000	1175.000000	57.188029
1326.000000	1174.000000	57.068440
1327.000000	1173.000000	56.937450
1328.000000	1172.000000	56.806244
1329.000000	1171.000000	56.665927
1330.000000	1170.000000	56.505860
1331.000000	1169.000000	56.343612
1332.000000	1168.000000	56.170567
1333.000000	1167.000000	55.986411
1334.000000	1166.000000	55.791914
1335.000000	1165.000000	55.589950
1336.000000	1164.000000	55.375443
1337.000000	1163.000000	55.152576
1338.000000	1162.000000	54.914995
1339.000000	1161.000000	54.668649
1340.000000	1160.000000	54.426944
1341.000000	1159.000000	54.162362
1342.000000	1158.000000	53.868410
1343.000000	1157.000000	53.578546
1344.000000	1156.000000	53.283918
1345.000000	1155.000000	52.942174
1346.000000	1154.000000	52.591233
1347.000000	1153.000000	52.250330
1348.000000	1152.000000	51.888822
1349.000000	1151.000000	51.474410
1350.000000	1150.000000	51.032240
1351.000000	1149.000000	50.548240
1352.000000	1148.000000	50.036902
1353.000000	1147.000000	49.472285
1354.000000	1146.000000	49.012293
1355.000000	1145.000000	48.563461
1356.000000	1144.000000	48.159841
1357.000000	1143.000000	47.867710
1358.000000	1142.000000	47.678289
1359.000000	1141.000000	47.555242
1360.000000	1140.000000	47.458385
1361.000000	1139.000000	47.424856
1362.000000	1138.000000	47.321014
1363.000000	1137.000000	47.132294
1364.000000	1136.000000	46.925968
1365.000000	1135.000000	46.722835
1366.000000	1134.000000	46.481075
1367.000000	1133.000000	46.212702
1368.000000	1132.000000	45.918114
1369.000000	1131.000000	45.550797
1370.000000	1130.000000	45.137498
1371.000000	1129.000000	44.672649
1372.000000	1128.000000	44.116095
1373.000000	1127.000000	43.489535
1374.000000	1126.000000	42.848328
1375.000000	1125.000000	42.238338
1376.000000	1124.000000	41.672762
1377.000000	1123.000000	41.171904
1378.000000	1122.000000	40.700238
1379.000000	1121.000000	40.314910
1380.000000	1120.000000	39.966672
1381.000000	1119.000000	39.650923
1382.000000	1118.000000	39.308352
1383.000000	1117.000000	38.947812
1384.000000	1116.000000	38.604617
1385.000000	1115.000000	38.229352
1386.000000	1114.000000	37.936250
1387.000000	1113.000000	37.720923
1388.000000	1112.000000	37.614139
1389.000000	1111.000000	37.482644
1390.000000	1110.000000	37.369352
1391.000000	1109.000000	37.322643
1392.000000	1108.000000	37.337272
1393.000000	1107.000000	37.324312
1394.000000	1106.000000	37.320814
1395.000000	1105.000000	37.347888
1396.000000	1104.000000	37.357856
1397.000000	1103.000000	37.241378
1398.000000	1102.000000	37.082678
1399.000000	1101.000000	36.972970
1400.000000	1100.000000	36.878703
1401.000000	1099.000000	36.738409
1402.000000	1098.000000	36.391959
1403.000000	1097.000000	36.088632
1404.000000	1096.000000	35.778186
1405.000000	1095.000000	35.528138
1406.000000	1094.000000	35.206832
1407.000000	1093.000000	34.906541
1408.000000	1092.000000	34.604475
1409.000000	1091.000000	34.318677
1410.000000	1090.000000	34.029243
1411.000000	1089.000000	33.754710
1412.000000	1088.000000	33.494034
1413.000000	1087.000000	33.330062
1414.000000	1086.000000	33.176551
1415.000000	1085.000000	32.979459
1416.000000	1084.000000	32.743201
1417.000000	1083.000000	32.493039
1418.000000	1082.000000	32.336263
1419.000000	1081.000000	32.148798
1420.000000	1080.000000	31.940307
1421.000000	1079.000000	31.710225
1422.000000	1078.000000	31.468194
1423.000000	1077.000000	31.285826
1424.000000	1076.000000	31.085746
1425.000000	1075.000000	30.873672
1426.000000	1074.000000	30.646328
1427.000000	1073.000000	30.451156
1428.000000	1072.000000	30.282508
1429.000000	1071.000000	30.101891
1430.000000	1070.000000	29.930565
1431.000000	1069.000000	29.802024
1432.000000	1068.000000	29.647036
1433.000000	1067.000000	29.531042
1434.000000	1066.000000	29.391917
1435.000000	1065.000000	29.250167
1436.000000	1064.000000	29.117848
1437.000000	1063.000000	29.006402
1438.000000	1062.000000	28.897848
1439.000000	1061.000000	28.762509
1440.000000	1060.000000	28.637643
1441.000000	1059.000000	28.508779
1442.000000	1058.000000	28.378153
1443.000000	1057.000000	28.251869
1444.000000	1056.000000	28.115992
1445.000000	1055.000000	28.014351
1446.000000	1054.000000	27.907637
1447.000000	1053.000000	27.764932
1448.000000	1052.000000	27.625739
1449.000000	1051.000000	27.498208
1450.000000	1050.000000	27.408369
1451.000000	1049.000000	27.315557
1452.000000	1048.000000	27.199385
1453.000000	1047.000000	27.069368
1454.000000	1046.000000	26.957979
1455.000000	1045.000000	26.850809
1456.000000	1044.000000	26.758745
1457.000000	1043.000000	26.664590
1458.000000	1042.000000	26.571677
1459.000000	1041.000000	26.482654
1460.000000	1040.000000	26.400179
1461.000000	1039.000000	26.322842
1462.000000	1038.000000	26.250352
1463.000000	1037.000000	26.171732
1464.000000	1036.000000	26.101565
1465.000000	1035.000000	26.044160
1466.000000	1034.000000	25.998221
1467.000000	1033.000000	25.952564
1468.000000	1032.000000	25.879602
1469.000000	1031.000000	25.840425
1470.000000	1030.000000	25.808857
1471.000000	1029.000000	25.765438
1472.000000	1028.000000	25.723096
1473.000000	1027.000000	25.679670
1474.000000	1026.000000	25.611996
1475.000000	1025.000000	25.565102
1476.000000	1024.000000	25.520610
1477.000000	1023.000000	25.492954
1478.000000	1022.000000	25.463457
1479.000000	1021.000000	25.412963
1480.000000	1020.000000	25.384710
1481.000000	1019.000000	25.357639
1482.000000	1018.000000	25.336681
1483.000000	1017.000000	25.308701
1484.000000	1016.000000	25.279476
1485.000000	1015.000000	25.266245
1486.000000	1014.000000	25.255626
1487.000000	1013.000000	25.242094
1488.000000	1012.000000	25.234166
1489.000000	1011.000000	25.232280
1490.000000	1010.000000	25.218767
1491.000000	1009.000000	25.202458
1492.000000	1008.000000	25.201006
1493.000000	1007.000000	25.193079
1494.000000	1006.000000	25.191968
1495.000000	1005.000000	25.200246
1496.000000	1004.000000	25.200361
1497.000000	1003.000000	25.205420
1498.000000	1002.000000	25.208522
1499.000000	1001.000000	25.228148
1500.000000	1000.000000	25.240006
1501.000000	999.000000	25.259714
1502.000000	998.000000	25.291493
1503.000000	997.000000	25.317561
1504.000000	996.000000	25.341895
1505.000000	995.000000	25.384002
1506.000000	994.000000	25.417875
1507.000000	993.000000	25.441269
1508.000000	992.000000	25.459280
1509.000000	991.000000	25.505438
1510.000000	990.000000	25.537519
1511.000000	989.000000	25.566265
1512.000000	988.000000	25.599833
1513.000000	987.000000	25.636984
1514.000000	986.000000	25.661235
1515.000000	985.000000	25.700965
1516.000000	984.000000	25.727215
1517.000000	983.000000	25.752759
1518.000000	982.000000	25.780291
1519.000000	981.000000	25.809939
1520.000000	980.000000	25.848742
1521.000000	979.000000	25.874478
1522.000000	978.000000	25.896506
1523.000000	977.000000	25.923234
1524.000000	976.000000	25.938092
1525.000000	975.000000	25.968215
1526.000000	974.000000	26.002268
1527.000000	973.000000	26.020389
1528.000000	972.000000	26.039477
1529.000000	971.000000	26.065840
1530.000000	970.000000	26.083993
1531.000000	969.000000	26.105222
1532.000000	968.000000	26.115743
1533.000000	967.000000	26.127649
1534.000000	966.000000	26.137904
1535.000000	965.000000	26.143065
1536.000000	964.000000	26.145503
1537.000000	963.000000	26.145438
1538.000000	962.000000	26.145767
1539.000000	961.000000	26.152624
1540.000000	960.000000	26.153035
1541.000000	959.000000	26.154591
1542.000000	958.000000	26.154100
1543.000000	957.000000	26.152166
1544.000000	956.000000	26.157954
1545.000000	955.000000	26.173544
1546.000000	954.000000	26.183172
1547.000000	953.000000	26.195765
1548.000000	952.000000	26.209516
1549.000000	951.000000	26.227962
1550.000000	950.000000	26.252179
1551.000000	949.000000	26.265896
1552.000000	948.000000	26.276135
1553.000000	947.000000	26.289120
1554.000000	946.000000	26.298360
1555.000000	945.000000	26.299353
1556.000000	944.000000	26.292213
1557.000000	943.000000	26.291251
1558.000000	942.000000	26.281941
1559.000000	941.000000	26.267394
1560.000000	940.000000	26.260162
1561.000000	939.000000	26.238063
1562.000000	938.000000	26.207318
1563.000000	937.000000	26.188505
1564.000000	936.000000	26.156506
1565.000000	935.000000	26.114570
1566.000000	934.000000	26.081009
1567.000000	933.000000	26.047095
1568.000000	932.000000	26.011179
1569.000000	931.000000	25.977786
1570.000000	930.000000	25.949553
1571.000000	929.000000	25.916983
1572.000000	928.000000	25.891724
1573.000000	927.000000	25.875537
1574.000000	926.000000	25.859449
1575.000000	925.000000	25.852028
1576.000000	924.000000	25.849346
1577.000000	923.000000	25.838062
1578.000000	922.000000	25.831694
1579.000000	921.000000	25.839743
1580.000000	920.000000	25.857507
1581.000000	919.000000	25.871998
1582.000000	918.000000	25.883971
1583.000000	917.000000	25.912048
1584.000000	916.000000	25.949267
1585.000000	915.000000	25.984128
1586.000000	914.000000	26.013869
1587.000000	913.000000	26.038800
1588.000000	912.000000	26.073943
1589.000000	911.000000	26.116294
1590.000000	910.000000	26.166583
1591.000000	909.000000	26.217543
1592.000000	908.000000	26.271284
1593.000000	907.000000	26.322782
1594.000000	906.000000	26.377385
1595.000000	905.000000	26.426614
1596.000000	904.000000	26.488266
1597.000000	903.000000	26.555818
1598.000000	902.000000	26.627418
1599.000000	901.000000	26.691978
1600.000000	900.000000	26.761487
1601.000000	899.000000	26.835281
1602.000000	898.000000	26.914498
1603.000000	897.000000	26.988349
1604.000000	896.000000	27.074118
1605.000000	895.000000	27.154018
1606.000000	894.000000	27.231120
1607.000000	893.000000	27.312060
1608.000000	892.000000	27.380872
1609.000000	891.000000	27.460083
1610.000000	890.000000	27.543287
1611.000000	889.000000	27.618672
1612.000000	888.000000	27.694542
1613.000000	887.000000	27.762313
1614.000000	886.000000	27.844745
1615.000000	885.000000	27.926260
1616.000000	884.000000	28.005709
1617.000000	883.000000	28.090949
1618.000000	882.000000	28.172476
1619.000000	881.000000	28.254122
1620.000000	880.000000	28.334129
1621.000000	879.000000	28.417278
1622.000000	878.000000	28.507357
1623.000000	877.000000	28.596313
1624.000000	876.000000	28.684741
1625.000000	875.000000	28.773507
1626.000000	874.000000	28.862667
1627.000000	873.000000	28.948546
1628.000000	872.000000	29.043118
1629.000000	871.000000	29.129314
1630.000000	870.000000	29.223113
1631.000000	869.000000	29.307170
1632.000000	868.000000	29.389446
1633.000000	867.000000	29.468265
1634.000000	866.000000	29.553375
1635.000000	865.000000	29.632073
1636.000000	864.000000	29.714450
1637.000000	863.000000	29.788319
1638.000000	862.000000	29.854534
1639.000000	861.000000	29.925670
1640.000000	860.000000	29.990448
1641.000000	859.000000	30.052942
1642.000000	858.000000	30.116343
1643.000000	857.000000	30.176448
1644.000000	856.000000	30.236097
1645.000000	855.000000	30.288538
1646.000000	854.000000	30.346322
1647.000000	853.000000	30.406653
1648.000000	852.000000	30.446454
1649.000000	851.000000	30.490039
1650.000000	850.000000	30.525052
1651.000000	849.000000	30.548881
1652.000000	848.000000	30.573186
1653.000000	847.000000	30.597417
1654.000000	846.000000	30.602588
1655.000000	845.000000	30.596413
1656.000000	844.000000	30.584410
1657.000000	843.000000	30.589170
1658.000000	842.000000	30.554234
1659.000000	841.000000	30.506136
1660.000000	840.000000	30.459116
1661.000000	839.000000	30.399631
1662.000000	838.000000	30.342492
1663.000000	837.000000	30.246020
1664.000000	836.000000	30.153844
1665.000000	835.000000	30.054826
1666.000000	834.000000	29.942575
1667.000000	833.000000	29.813593
1668.000000	832.000000	29.665221
1669.000000	831.000000	29.483112
1670.000000	830.000000	29.283908
1671.000000	829.000000	29.070228
1672.000000	828.000000	28.820749
1673.000000	827.000000	28.540612
1674.000000	826.000000	28.219805
1675.000000	825.000000	27.841991
1676.000000	824.000000	27.420294
1677.000000	823.000000	26.919238
1678.000000	822.000000	26.375685
1679.000000	821.000000	25.794788
1680.000000	820.000000	25.195322
1681.000000	819.000000	24.609696
1682.000000	818.000000	24.107907
1683.000000	817.000000	23.717446
1684.000000	816.000000	23.459733
1685.000000	815.000000	23.324527
1686.000000	814.000000	23.269642
1687.000000	813.000000	23.254799
1688.000000	812.000000	23.225067
1689.000000	811.000000	23.172263
1690.000000	810.000000	23.068920
1691.000000	809.000000	22.914284
1692.000000	808.000000	22.742181
1693.000000	807.000000	22.591093
1694.000000	806.000000	22.451739
1695.000000	805.000000	22.386074
1696.000000	804.000000	22.392111
1697.000000	803.000000	22.449488
1698.000000	802.000000	22.560955
1699.000000	801.000000	22.716790
1700.000000	800.000000	22.869438
1701.000000	799.000000	23.057160
1702.000000	798.000000	23.199995
1703.000000	797.000000	23.317931
1704.000000	796.000000	23.410219
1705.000000	795.000000	23.475183
1706.000000	794.000000	23.522743
1707.000000	793.000000	23.569786
1708.000000	792.000000	23.592104
1709.000000	791.000000	23.613449
1710.000000	790.000000	23.608171
1711.000000	789.000000	23.589363
1712.000000	788.000000	23.547950
1713.000000	787.000000	23.501939
1714.000000	786.000000	23.418817
1715.000000	785.000000	23.337671
1716.000000	784.000000	23.261552
1717.000000	783.000000	23.188585
1718.000000	782.000000	23.119234
1719.000000	781.000000	23.060917
1720.000000	780.000000	23.029682
1721.000000	779.000000	23.002104
1722.000000	778.000000	22.971639
1723.000000	777.000000	22.954876
1724.000000	776.000000	22.923466
1725.000000	775.000000	22.867441
1726.000000	774.000000	22.802523
1727.000000	773.000000	22.723242
1728.000000	772.000000	22.612765
1729.000000	771.000000	22.497583
1730.000000	770.000000	22.393656
1731.000000	769.000000	22.283088
1732.000000	768.000000	22.210247
1733.000000	767.000000	22.156458
1734.000000	766.000000	22.155869
1735.000000	765.000000	22.191199
1736.000000	764.000000	22.294195
1737.000000	763.000000	22.434543
1738.000000	762.000000	22.621520
1739.000000	761.000000	22.851460
1740.000000	760.000000	23.100253
1741.000000	759.000000	23.358202
1742.000000	758.000000	23.601884
1743.000000	757.000000	23.835305
1744.000000	756.000000	24.049608
1745.000000	755.000000	24.238330
1746.000000	754.000000	24.386951
1747.000000	753.000000	24.537191
1748.000000	752.000000	24.658186
1749.000000	751.000000	24.735739
1750.000000	750.000000	24.824766
1751.000000	749.000000	24.891033
1752.000000	748.000000	24.940571
1753.000000	747.000000	24.975298
1754.000000	746.000000	24.995179
1755.000000	745.000000	24.990866
1756.000000	744.000000	24.968500
1757.000000	743.000000	24.923936
1758.000000	742.000000	24.865611
1759.000000	741.000000	24.815705
1760.000000	740.000000	24.748657
1761.000000	739.000000	24.693963
1762.000000	738.000000	24.661944
1763.000000	737.000000	24.644648
1764.000000	736.000000	24.670967
1765.000000	735.000000	24.725068
1766.000000	734.000000	24.802999
1767.000000	733.000000	24.891089
1768.000000	732.000000	25.012923
1769.000000	731.000000	25.151006
1770.000000	730.000000	25.290684
1771.000000	729.000000	25.438834
1772.000000	728.000000	25.587026
1773.000000	727.000000	25.739101
1774.000000	726.000000	25.883175
1775.000000	725.000000	26.035471
1776.000000	724.000000	26.174154
1777.000000	723.000000	26.296978
1778.000000	722.000000	26.407155
1779.000000	721.000000	26.517133
1780.000000	720.000000	26.616396
1781.000000	719.000000	26.707806
1782.000000	718.000000	26.801146
1783.000000	717.000000	26.882132
1784.000000	716.000000	26.970313
1785.000000	715.000000	27.053291
1786.000000	714.000000	27.146103
1787.000000	713.000000	27.218105
1788.000000	712.000000	27.277899
1789.000000	711.000000	27.344435
1790.000000	710.000000	27.401961
1791.000000	709.000000	27.464897
1792.000000	708.000000	27.520624
1793.000000	707.000000	27.577625
1794.000000	706.000000	27.642505
1795.000000	705.000000	27.691313
1796.000000	704.000000	27.746247
1797.000000	703.000000	27.795121
1798.000000	702.000000	27.835776
1799.000000	701.000000	27.881805
1800.000000	700.000000	27.941487
1801.000000	699.000000	28.003637
1802.000000	698.000000	28.067626
1803.000000	697.000000	28.106797
1804.000000	696.000000	28.135069
1805.000000	695.000000	28.185737
1806.000000	694.000000	28.246183
1807.000000	693.000000	28.295342
1808.000000	692.000000	28.339582
1809.000000	691.000000	28.372074
1810.000000	690.000000	28.404669
1811.000000	689.000000	28.446448
1812.000000	688.000000	28.493749
1813.000000	687.000000	28.519361
1814.000000	686.000000	28.520868
1815.000000	685.000000	28.528840
1816.000000	684.000000	28.546425
1817.000000	683.000000	28.546275
1818.000000	682.000000	28.544487
1819.000000	681.000000	28.564394
1820.000000	680.000000	28.616501
1821.000000	679.000000	28.679215
1822.000000	678.000000	28.716078
1823.000000	677.000000	28.710554
1824.000000	676.000000	28.699782
1825.000000	675.000000	28.728113
1826.000000	674.000000	28.795938
1827.000000	673.000000	28.878306
1828.000000	672.000000	28.960518
1829.000000	671.000000	29.061047
1830.000000	670.000000	29.151094
1831.000000	669.000000	29.234889
1832.000000	668.000000	29.309993
1833.000000	667.000000	29.380457
1834.000000	666.000000	29.450791
1835.000000	665.000000	29.536401
1836.000000	664.000000	29.636783
1837.000000	663.000000	29.727589
1838.000000	662.000000	29.802077
1839.000000	661.000000	29.853108
1840.000000	660.000000	29.903409
1841.000000	659.000000	29.970055
1842.000000	658.000000	30.029605
1843.000000	657.000000	30.046792
1844.000000	656.000000	30.039568
1845.000000	655.000000	30.056557
1846.000000	654.000000	30.111559
1847.000000	653.000000	30.221360
1848.000000	652.000000	30.348188
1849.000000	651.000000	30.438365
1850.000000	650.000000	30.470994
1851.000000	649.000000	30.474000
1852.000000	648.000000	30.482942
1853.000000	647.000000	30.524326
1854.000000	646.000000	30.597842
1855.000000	645.000000	30.657828
1856.000000	644.000000	30.677644
1857.000000	643.000000	30.677276
1858.000000	642.000000	30.673943
1859.000000	641.000000	30.678201
1860.000000	640.000000	30.672236
1861.000000	639.000000	30.632495
1862.000000	638.000000	30.572567
1863.000000	637.000000	30.495176
1864.000000	636.000000	30.409314
1865.000000	635.000000	30.331462
1866.000000	634.000000	30.245985
1867.000000	633.000000	30.161855
1868.000000	632.000000	30.065770
1869.000000	631.000000	29.936512
1870.000000	630.000000	29.764944
1871.000000	629.000000	29.587105
1872.000000	628.000000	29.358108
1873.000000	627.000000	29.089158
1874.000000	626.000000	28.788604
1875.000000	625.000000	28.455812
1876.000000	624.000000	28.078062
1877.000000	623.000000	27.694776
1878.000000	622.000000	27.278889
1879.000000	621.000000	26.840403
1880.000000	620.000000	26.387057
1881.000000	619.000000	25.925160
1882.000000	618.000000	25.435424
1883.000000	617.000000	24.984169
1884.000000	616.000000	24.526364
1885.000000	615.000000	24.061512
1886.000000	614.000000	23.653422
1887.000000	613.000000	23.290781
1888.000000	612.000000	22.953954
1889.000000	611.000000	22.628827
1890.000000	610.000000	22.348106
1891.000000	609.000000	22.053387
1892.000000	608.000000	21.741120
1893.000000	607.000000	21.426677
1894.000000	606.000000	21.123349
1895.000000	605.000000	20.843876
1896.000000	604.000000	20.579470
1897.000000	603.000000	20.317876
1898.000000	602.000000	20.017187
1899.000000	601.000000	19.742106
1900.000000	600.000000	19.455485
1901.000000	599.000000	19.178658
1902.000000	598.000000	18.909904
1903.000000	597.000000	18.654210
1904.000000	596.000000	18.405212
1905.000000	595.000000	18.146040
1906.000000	594.000000	17.874105
1907.000000	593.000000	17.602653
1908.000000	592.000000	17.354826
1909.000000	591.000000	17.127869
1910.000000	590.000000	16.930814
1911.000000	589.000000	16.723741
1912.000000	588.000000	16.519450
1913.000000	587.000000	16.324453
1914.000000	586.000000	16.113163
1915.000000	585.000000	15.902369
1916.000000	584.000000	15.720271
1917.000000	583.000000	15.550815
1918.000000	582.000000	15.393347
1919.000000	581.000000	15.221133
1920.000000	580.000000	15.079617
1921.000000	579.000000	14.942344
1922.000000	578.000000	14.795317
1923.000000	577.000000	14.649628
1924.000000	576.000000	14.536999
1925.000000	575.000000	14.426980
1926.000000	574.000000	14.310634
1927.000000	573.000000	14.218655
1928.000000	572.000000	14.144117
1929.000000	571.000000	14.052676
1930.000000	570.000000	13.992096
1931.000000	569.000000	13.915162
1932.000000	568.000000	13.845815
1933.000000	567.000000	13.805471
1934.000000	566.000000	13.764044
1935.000000	565.000000	13.723699
1936.000000	564.000000	13.697133
1937.000000	563.000000	13.687900
1938.000000	562.000000	13.678452
1939.000000	561.000000	13.674927
1940.000000	560.000000	13.687002
1941.000000	559.000000	13.684500
1942.000000	558.000000	13.707621
1943.000000	557.000000	13.707549
1944.000000	556.000000	13.723252
1945.000000	555.000000	13.766210
1946.000000	554.000000	13.794153
1947.000000	553.000000	13.824338
1948.000000	552.000000	13.875810
1949.000000	551.000000	13.910360
1950.000000	550.000000	13.962897
1951.000000	549.000000	14.011081
1952.000000	548.000000	14.058137
1953.000000	547.000000	14.115085
1954.000000	546.000000	14.169443
1955.000000	545.000000	14.236627
1956.000000	544.000000	14.291948
1957.000000	543.000000	14.352333
1958.000000	542.000000	14.403951
1959.000000	541.000000	14.463352
1960.000000	540.000000	14.515717
1961.000000	539.000000	14.585640
1962.000000	538.000000	14.645363
1963.000000	537.000000	14.708960
1964.000000	536.000000	14.765297
1965.000000	535.000000	14.824763
1966.000000	534.000000	14.879337
1967.000000	533.000000	14.928866
1968.000000	532.000000	14.992771
1969.000000	531.000000	15.050801
1970.000000	530.000000	15.112874
1971.000000	529.000000	15.172936
1972.000000	528.000000	15.237670
1973.000000	527.000000	15.292505
1974.000000	526.000000	15.355640
1975.000000	525.000000	15.423279
1976.000000	524.000000	15.477843
1977.000000	523.000000	15.552775
1978.000000	522.000000	15.627547
1979.000000	521.000000	15.696737
1980.000000	520.000000	15.758968
1981.000000	519.000000	15.817036
1982.000000	518.000000	15.890473
1983.000000	517.000000	15.951431
1984.000000	516.000000	16.012298
1985.000000	515.000000	16.072789
1986.000000	514.000000	16.133330
1987.000000	513.000000	16.203285
1988.000000	512.000000	16.262232
1989.000000	511.000000	16.319594
1990.000000	510.000000	16.366261
1991.000000	509.000000	16.425924
1992.000000	508.000000	16.478079
1993.000000	507.000000	16.515976
1994.000000	506.000000	16.576004
1995.000000	505.000000	16.612374
1996.000000	504.000000	16.642980
1997.000000	503.000000	16.665891
1998.000000	502.000000	16.704005
1999.000000	501.000000	16.727082
