PE UV       SUBTECH     SPECTRUM    ASCII       PEDS        4.00        
   -1
CICIMAUCR0018-5.Sample.ASC
24/04/25
10:17:18.00
24/04/25
10:17:18.00
Vinicio Soto Monge
C. cupreomarginata
250,000000
1
Lambda 1050
1050L1511233
PerkinElmer UV WinLab 6.3.2.0749 / 2.02.05 Lambda 900 UV/VIS/NIR, Aug  7 2015 09:38:08

0
0
3350/servo 860,8/2
0
0
UV/VIS
1
1
1
DoubleDePol,CommonBeamDepol,RBeamAtt,SBeamAtt,60mm sphere, WB InGaAs Detector
0
0
0
0
Program
Program
3350/servo 860,8/2
3350/0,2 860,8/0,2
3350/0,2 860,8/0,2
0
15.00
 
 
 
0
 
860,8
319,2
860,8
Front
100
on
S:100 R:100
0
0
0
0
 
0
 
 
 
0
 
 
0
0
0
0
0
 
 
 
 
0
0


0
0
#HDR
-1
-1
#GR
nm
%R
1.0
0.0
2500,000000
-1,000000
2251
8
70,377300
5,315300
#DATA
250.000000	1.820089
251.000000	1.803883
252.000000	1.791329
253.000000	1.784721
254.000000	1.748667
255.000000	1.765032
256.000000	1.754414
257.000000	1.753860
258.000000	1.753815
259.000000	1.724883
260.000000	1.728122
261.000000	1.723376
262.000000	1.711635
263.000000	1.695292
264.000000	1.667089
265.000000	1.675170
266.000000	1.664356
267.000000	1.650270
268.000000	1.641681
269.000000	1.637139
270.000000	1.654334
271.000000	1.634373
272.000000	1.614571
273.000000	1.609634
274.000000	1.622018
275.000000	1.598874
276.000000	1.605389
277.000000	1.590554
278.000000	1.598025
279.000000	1.602075
280.000000	1.595114
281.000000	1.580452
282.000000	1.575625
283.000000	1.586787
284.000000	1.578333
285.000000	1.571039
286.000000	1.560211
287.000000	1.566711
288.000000	1.574333
289.000000	1.577983
290.000000	1.552244
291.000000	1.573722
292.000000	1.568352
293.000000	1.549172
294.000000	1.540010
295.000000	1.554436
296.000000	1.527160
297.000000	1.532089
298.000000	1.526974
299.000000	1.516598
300.000000	1.513582
301.000000	1.511775
302.000000	1.499917
303.000000	1.500037
304.000000	1.513849
305.000000	1.521449
306.000000	1.498477
307.000000	1.505890
308.000000	1.495111
309.000000	1.486252
310.000000	1.483110
311.000000	1.501654
312.000000	1.484879
313.000000	1.478943
314.000000	1.462306
315.000000	1.453966
316.000000	1.512081
317.000000	1.940027
318.000000	1.739534
319.000000	1.788206
320.000000	1.830258
321.000000	1.607798
322.000000	1.652209
323.000000	1.761681
324.000000	1.702479
325.000000	1.630163
326.000000	1.634694
327.000000	1.566458
328.000000	1.462040
329.000000	1.558675
330.000000	1.500847
331.000000	1.422045
332.000000	1.506304
333.000000	1.489468
334.000000	1.453432
335.000000	1.483742
336.000000	1.514394
337.000000	1.504057
338.000000	1.475406
339.000000	1.424097
340.000000	1.470443
341.000000	1.418434
342.000000	1.486063
343.000000	1.430723
344.000000	1.436606
345.000000	1.411423
346.000000	1.349922
347.000000	1.398464
348.000000	1.464123
349.000000	1.372975
350.000000	1.386547
351.000000	1.418208
352.000000	1.403585
353.000000	1.386834
354.000000	1.368210
355.000000	1.347598
356.000000	1.344036
357.000000	1.347308
358.000000	1.362688
359.000000	1.386773
360.000000	1.360886
361.000000	1.349905
362.000000	1.346536
363.000000	1.318009
364.000000	1.344022
365.000000	1.322604
366.000000	1.305037
367.000000	1.357260
368.000000	1.352839
369.000000	1.321259
370.000000	1.268103
371.000000	1.264883
372.000000	1.268700
373.000000	1.249173
374.000000	1.211301
375.000000	1.262332
376.000000	1.389158
377.000000	1.417282
378.000000	1.428819
379.000000	1.447814
380.000000	1.463906
381.000000	1.475608
382.000000	1.492978
383.000000	1.517711
384.000000	1.543031
385.000000	1.572623
386.000000	1.600139
387.000000	1.638003
388.000000	1.674947
389.000000	1.710940
390.000000	1.755114
391.000000	1.798243
392.000000	1.852908
393.000000	1.910469
394.000000	1.965125
395.000000	2.024553
396.000000	2.088689
397.000000	2.151240
398.000000	2.216603
399.000000	2.291243
400.000000	2.367087
401.000000	2.442589
402.000000	2.520617
403.000000	2.597251
404.000000	2.680388
405.000000	2.759407
406.000000	2.843428
407.000000	2.923188
408.000000	2.998837
409.000000	3.080156
410.000000	3.165956
411.000000	3.241340
412.000000	3.314514
413.000000	3.391850
414.000000	3.468463
415.000000	3.541544
416.000000	3.607644
417.000000	3.675757
418.000000	3.739626
419.000000	3.803854
420.000000	3.866680
421.000000	3.926541
422.000000	3.987519
423.000000	4.041849
424.000000	4.090916
425.000000	4.138613
426.000000	4.189290
427.000000	4.240863
428.000000	4.285054
429.000000	4.331193
430.000000	4.375221
431.000000	4.414147
432.000000	4.453191
433.000000	4.488649
434.000000	4.522658
435.000000	4.554693
436.000000	4.578537
437.000000	4.598549
438.000000	4.625901
439.000000	4.652188
440.000000	4.668149
441.000000	4.679170
442.000000	4.681501
443.000000	4.672195
444.000000	4.670408
445.000000	4.661703
446.000000	4.641999
447.000000	4.625193
448.000000	4.598759
449.000000	4.568662
450.000000	4.539839
451.000000	4.508916
452.000000	4.482788
453.000000	4.454773
454.000000	4.429402
455.000000	4.404746
456.000000	4.385550
457.000000	4.378531
458.000000	4.368953
459.000000	4.366780
460.000000	4.375179
461.000000	4.394393
462.000000	4.422529
463.000000	4.454240
464.000000	4.498400
465.000000	4.555467
466.000000	4.618543
467.000000	4.686083
468.000000	4.761785
469.000000	4.849220
470.000000	4.950872
471.000000	5.059511
472.000000	5.173748
473.000000	5.294537
474.000000	5.422802
475.000000	5.552006
476.000000	5.681898
477.000000	5.817254
478.000000	5.949158
479.000000	6.073422
480.000000	6.190585
481.000000	6.301410
482.000000	6.410077
483.000000	6.514889
484.000000	6.616585
485.000000	6.701560
486.000000	6.786290
487.000000	6.869851
488.000000	6.950245
489.000000	7.031584
490.000000	7.117713
491.000000	7.201336
492.000000	7.281589
493.000000	7.366328
494.000000	7.453623
495.000000	7.549613
496.000000	7.650965
497.000000	7.754975
498.000000	7.865207
499.000000	7.983567
500.000000	8.110326
501.000000	8.237605
502.000000	8.375599
503.000000	8.519882
504.000000	8.673656
505.000000	8.834256
506.000000	9.000642
507.000000	9.173943
508.000000	9.345116
509.000000	9.533072
510.000000	9.726458
511.000000	9.923639
512.000000	10.129708
513.000000	10.343715
514.000000	10.569088
515.000000	10.788775
516.000000	11.023002
517.000000	11.252772
518.000000	11.488885
519.000000	11.740820
520.000000	11.998859
521.000000	12.271758
522.000000	12.545659
523.000000	12.829136
524.000000	13.116146
525.000000	13.412522
526.000000	13.717027
527.000000	14.026538
528.000000	14.341413
529.000000	14.677389
530.000000	15.022068
531.000000	15.374444
532.000000	15.743674
533.000000	16.120596
534.000000	16.498991
535.000000	16.877312
536.000000	17.253517
537.000000	17.626412
538.000000	18.005937
539.000000	18.380714
540.000000	18.732453
541.000000	19.080628
542.000000	19.419974
543.000000	19.735270
544.000000	20.030638
545.000000	20.306756
546.000000	20.560860
547.000000	20.792479
548.000000	20.998768
549.000000	21.184388
550.000000	21.346259
551.000000	21.498204
552.000000	21.619474
553.000000	21.747282
554.000000	21.850705
555.000000	21.938661
556.000000	22.023256
557.000000	22.121946
558.000000	22.190574
559.000000	22.257034
560.000000	22.353296
561.000000	22.412136
562.000000	22.476201
563.000000	22.525005
564.000000	22.555483
565.000000	22.588790
566.000000	22.612694
567.000000	22.626345
568.000000	22.637453
569.000000	22.646011
570.000000	22.641612
571.000000	22.631194
572.000000	22.606144
573.000000	22.599835
574.000000	22.565617
575.000000	22.533905
576.000000	22.522995
577.000000	22.491840
578.000000	22.475330
579.000000	22.464989
580.000000	22.442417
581.000000	22.427951
582.000000	22.420061
583.000000	22.401158
584.000000	22.399111
585.000000	22.365424
586.000000	22.363007
587.000000	22.346739
588.000000	22.306190
589.000000	22.263359
590.000000	22.207557
591.000000	22.139167
592.000000	22.055746
593.000000	21.981845
594.000000	21.888611
595.000000	21.785536
596.000000	21.686661
597.000000	21.582459
598.000000	21.475885
599.000000	21.375436
600.000000	21.263386
601.000000	21.143376
602.000000	21.040436
603.000000	20.912665
604.000000	20.792957
605.000000	20.670172
606.000000	20.551636
607.000000	20.407726
608.000000	20.256271
609.000000	20.101108
610.000000	19.918454
611.000000	19.725826
612.000000	19.506340
613.000000	19.267096
614.000000	19.015259
615.000000	18.748469
616.000000	18.470511
617.000000	18.171188
618.000000	17.863175
619.000000	17.532618
620.000000	17.220135
621.000000	16.895471
622.000000	16.560161
623.000000	16.244216
624.000000	15.928815
625.000000	15.621230
626.000000	15.330778
627.000000	15.047294
628.000000	14.783094
629.000000	14.548386
630.000000	14.334495
631.000000	14.129969
632.000000	13.955800
633.000000	13.810732
634.000000	13.677324
635.000000	13.588756
636.000000	13.525484
637.000000	13.464796
638.000000	13.441089
639.000000	13.456066
640.000000	13.474604
641.000000	13.519263
642.000000	13.588638
643.000000	13.666946
644.000000	13.776540
645.000000	13.887580
646.000000	14.018609
647.000000	14.156815
648.000000	14.283473
649.000000	14.430604
650.000000	14.581485
651.000000	14.716209
652.000000	14.850983
653.000000	14.969285
654.000000	15.090324
655.000000	15.182654
656.000000	15.274288
657.000000	15.366170
658.000000	15.430949
659.000000	15.480279
660.000000	15.533206
661.000000	15.555501
662.000000	15.596166
663.000000	15.618496
664.000000	15.640918
665.000000	15.656686
666.000000	15.648518
667.000000	15.650941
668.000000	15.661503
669.000000	15.664797
670.000000	15.661449
671.000000	15.648658
672.000000	15.633170
673.000000	15.605335
674.000000	15.589470
675.000000	15.563933
676.000000	15.544362
677.000000	15.516530
678.000000	15.476606
679.000000	15.437580
680.000000	15.393541
681.000000	15.358675
682.000000	15.329256
683.000000	15.298907
684.000000	15.262652
685.000000	15.241167
686.000000	15.241479
687.000000	15.231858
688.000000	15.221260
689.000000	15.235630
690.000000	15.239830
691.000000	15.255181
692.000000	15.257262
693.000000	15.285340
694.000000	15.319152
695.000000	15.353464
696.000000	15.373110
697.000000	15.400417
698.000000	15.433589
699.000000	15.460609
700.000000	15.496302
701.000000	15.523955
702.000000	15.563374
703.000000	15.599241
704.000000	15.623345
705.000000	15.660893
706.000000	15.694947
707.000000	15.735174
708.000000	15.782319
709.000000	15.811191
710.000000	15.847259
711.000000	15.880479
712.000000	15.921114
713.000000	15.954834
714.000000	15.995846
715.000000	16.031958
716.000000	16.075615
717.000000	16.111648
718.000000	16.133628
719.000000	16.161958
720.000000	16.200528
721.000000	16.233078
722.000000	16.268336
723.000000	16.295582
724.000000	16.319775
725.000000	16.352320
726.000000	16.368910
727.000000	16.369140
728.000000	16.379130
729.000000	16.385176
730.000000	16.404553
731.000000	16.433528
732.000000	16.450474
733.000000	16.457365
734.000000	16.464987
735.000000	16.472774
736.000000	16.491667
737.000000	16.509806
738.000000	16.531850
739.000000	16.534465
740.000000	16.542016
741.000000	16.561818
742.000000	16.552382
743.000000	16.556472
744.000000	16.562598
745.000000	16.548244
746.000000	16.541459
747.000000	16.540895
748.000000	16.545208
749.000000	16.552377
750.000000	16.553893
751.000000	16.540411
752.000000	16.530121
753.000000	16.519314
754.000000	16.530502
755.000000	16.552451
756.000000	16.551360
757.000000	16.551805
758.000000	16.563654
759.000000	16.563504
760.000000	16.570743
761.000000	16.588285
762.000000	16.589488
763.000000	16.596515
764.000000	16.602769
765.000000	16.620655
766.000000	16.637857
767.000000	16.634485
768.000000	16.643717
769.000000	16.668737
770.000000	16.689157
771.000000	16.698619
772.000000	16.713606
773.000000	16.739282
774.000000	16.765861
775.000000	16.778024
776.000000	16.809324
777.000000	16.830606
778.000000	16.848232
779.000000	16.876273
780.000000	16.915174
781.000000	16.922108
782.000000	16.944202
783.000000	17.017215
784.000000	17.023597
785.000000	17.038934
786.000000	17.080612
787.000000	17.097676
788.000000	17.122220
789.000000	17.156412
790.000000	17.176469
791.000000	17.200576
792.000000	17.238286
793.000000	17.276830
794.000000	17.313785
795.000000	17.333015
796.000000	17.352998
797.000000	17.400411
798.000000	17.460239
799.000000	17.456547
800.000000	17.493512
801.000000	17.527466
802.000000	17.534569
803.000000	17.566340
804.000000	17.617469
805.000000	17.620134
806.000000	17.645936
807.000000	17.653875
808.000000	17.672007
809.000000	17.706874
810.000000	17.731095
811.000000	17.791560
812.000000	17.794593
813.000000	17.765599
814.000000	17.762774
815.000000	17.757126
816.000000	17.807395
817.000000	17.825270
818.000000	17.828375
819.000000	17.817629
820.000000	17.844512
821.000000	17.815208
822.000000	17.823442
823.000000	17.810966
824.000000	17.820113
825.000000	17.862026
826.000000	17.872437
827.000000	17.826078
828.000000	17.808379
829.000000	17.820462
830.000000	17.801871
831.000000	17.782151
832.000000	17.791221
833.000000	17.791312
834.000000	17.784239
835.000000	17.811416
836.000000	17.796963
837.000000	17.821869
838.000000	17.799929
839.000000	17.814040
840.000000	17.809757
841.000000	17.723038
842.000000	17.782794
843.000000	17.841086
844.000000	17.768273
845.000000	17.759224
846.000000	17.750258
847.000000	17.749085
848.000000	17.625861
849.000000	17.695819
850.000000	17.623976
851.000000	17.598514
852.000000	17.685033
853.000000	17.547007
854.000000	17.412937
855.000000	17.443559
856.000000	17.581002
857.000000	17.683049
858.000000	17.876419
859.000000	17.667945
860.000000	17.624308
861.000000	17.586726
862.000000	17.553980
863.000000	17.497120
864.000000	17.435590
865.000000	17.363702
866.000000	17.295933
867.000000	17.223192
868.000000	17.218280
869.000000	17.254963
870.000000	17.356653
871.000000	17.460307
872.000000	17.521527
873.000000	17.585933
874.000000	17.608049
875.000000	17.679866
876.000000	17.724715
877.000000	17.749494
878.000000	17.764966
879.000000	17.791218
880.000000	17.797448
881.000000	17.772559
882.000000	17.790471
883.000000	17.799101
884.000000	17.797331
885.000000	17.810717
886.000000	17.781058
887.000000	17.760586
888.000000	17.747273
889.000000	17.711358
890.000000	17.678941
891.000000	17.652542
892.000000	17.603385
893.000000	17.574468
894.000000	17.500563
895.000000	17.441016
896.000000	17.391598
897.000000	17.313928
898.000000	17.253961
899.000000	17.191334
900.000000	17.110737
901.000000	17.046395
902.000000	16.985667
903.000000	16.907856
904.000000	16.851697
905.000000	16.760870
906.000000	16.693188
907.000000	16.623071
908.000000	16.541534
909.000000	16.466143
910.000000	16.403432
911.000000	16.329497
912.000000	16.298280
913.000000	16.230608
914.000000	16.174489
915.000000	16.075297
916.000000	16.001945
917.000000	15.987439
918.000000	15.927164
919.000000	15.862893
920.000000	15.807794
921.000000	15.752990
922.000000	15.693590
923.000000	15.621592
924.000000	15.604021
925.000000	15.550950
926.000000	15.519479
927.000000	15.439970
928.000000	15.391909
929.000000	15.359829
930.000000	15.300858
931.000000	15.288017
932.000000	15.224873
933.000000	15.170030
934.000000	15.166215
935.000000	15.129719
936.000000	15.070721
937.000000	15.011834
938.000000	14.952522
939.000000	14.932049
940.000000	14.878443
941.000000	14.830434
942.000000	14.775391
943.000000	14.775967
944.000000	14.730001
945.000000	14.688258
946.000000	14.664228
947.000000	14.606024
948.000000	14.550987
949.000000	14.494848
950.000000	14.468936
951.000000	14.449326
952.000000	14.403184
953.000000	14.356432
954.000000	14.312478
955.000000	14.276163
956.000000	14.223598
957.000000	14.197998
958.000000	14.148442
959.000000	14.098191
960.000000	14.039481
961.000000	14.008005
962.000000	13.981481
963.000000	13.947733
964.000000	13.903019
965.000000	13.858212
966.000000	13.825372
967.000000	13.809192
968.000000	13.764535
969.000000	13.729234
970.000000	13.707428
971.000000	13.659760
972.000000	13.633205
973.000000	13.602432
974.000000	13.586078
975.000000	13.554880
976.000000	13.544882
977.000000	13.511537
978.000000	13.470993
979.000000	13.465509
980.000000	13.453485
981.000000	13.412234
982.000000	13.377602
983.000000	13.378086
984.000000	13.365602
985.000000	13.351075
986.000000	13.336974
987.000000	13.296947
988.000000	13.290696
989.000000	13.292731
990.000000	13.296021
991.000000	13.294363
992.000000	13.274538
993.000000	13.255508
994.000000	13.271391
995.000000	13.269485
996.000000	13.262730
997.000000	13.248259
998.000000	13.240148
999.000000	13.248917
1000.000000	13.250668
1001.000000	13.248642
1002.000000	13.245303
1003.000000	13.231212
1004.000000	13.211732
1005.000000	13.223694
1006.000000	13.225488
1007.000000	13.212546
1008.000000	13.206481
1009.000000	13.206117
1010.000000	13.209372
1011.000000	13.199921
1012.000000	13.204063
1013.000000	13.200549
1014.000000	13.172030
1015.000000	13.160729
1016.000000	13.177036
1017.000000	13.187149
1018.000000	13.177707
1019.000000	13.170790
1020.000000	13.175322
1021.000000	13.165975
1022.000000	13.171641
1023.000000	13.183082
1024.000000	13.181247
1025.000000	13.174837
1026.000000	13.168034
1027.000000	13.168595
1028.000000	13.181654
1029.000000	13.192779
1030.000000	13.193036
1031.000000	13.193224
1032.000000	13.198502
1033.000000	13.187416
1034.000000	13.183305
1035.000000	13.194841
1036.000000	13.202803
1037.000000	13.196053
1038.000000	13.189050
1039.000000	13.195214
1040.000000	13.205872
1041.000000	13.205772
1042.000000	13.202602
1043.000000	13.204417
1044.000000	13.219638
1045.000000	13.240677
1046.000000	13.244514
1047.000000	13.239584
1048.000000	13.232708
1049.000000	13.234532
1050.000000	13.247971
1051.000000	13.247667
1052.000000	13.248385
1053.000000	13.250301
1054.000000	13.247915
1055.000000	13.253238
1056.000000	13.266330
1057.000000	13.282431
1058.000000	13.285741
1059.000000	13.301347
1060.000000	13.310609
1061.000000	13.306713
1062.000000	13.309732
1063.000000	13.314116
1064.000000	13.330457
1065.000000	13.349002
1066.000000	13.349829
1067.000000	13.350357
1068.000000	13.364181
1069.000000	13.380198
1070.000000	13.392817
1071.000000	13.393231
1072.000000	13.402964
1073.000000	13.423957
1074.000000	13.444163
1075.000000	13.448513
1076.000000	13.445682
1077.000000	13.441246
1078.000000	13.442879
1079.000000	13.450338
1080.000000	13.460054
1081.000000	13.469352
1082.000000	13.488024
1083.000000	13.500009
1084.000000	13.510655
1085.000000	13.513726
1086.000000	13.528147
1087.000000	13.522528
1088.000000	13.539081
1089.000000	13.555555
1090.000000	13.569865
1091.000000	13.575588
1092.000000	13.579033
1093.000000	13.590633
1094.000000	13.584578
1095.000000	13.607637
1096.000000	13.611675
1097.000000	13.603176
1098.000000	13.607862
1099.000000	13.618951
1100.000000	13.618631
1101.000000	13.608654
1102.000000	13.611708
1103.000000	13.614593
1104.000000	13.618368
1105.000000	13.624786
1106.000000	13.618149
1107.000000	13.615219
1108.000000	13.606828
1109.000000	13.598136
1110.000000	13.603233
1111.000000	13.612738
1112.000000	13.628124
1113.000000	13.626715
1114.000000	13.619031
1115.000000	13.616278
1116.000000	13.614177
1117.000000	13.625954
1118.000000	13.638382
1119.000000	13.635472
1120.000000	13.620316
1121.000000	13.601856
1122.000000	13.596312
1123.000000	13.581675
1124.000000	13.593699
1125.000000	13.583778
1126.000000	13.589284
1127.000000	13.572071
1128.000000	13.552105
1129.000000	13.524408
1130.000000	13.496944
1131.000000	13.467247
1132.000000	13.449377
1133.000000	13.429277
1134.000000	13.402650
1135.000000	13.377733
1136.000000	13.324881
1137.000000	13.281032
1138.000000	13.254074
1139.000000	13.219856
1140.000000	13.201456
1141.000000	13.185789
1142.000000	13.167908
1143.000000	13.159521
1144.000000	13.130175
1145.000000	13.102576
1146.000000	13.108638
1147.000000	13.096292
1148.000000	13.074172
1149.000000	13.066607
1150.000000	13.045950
1151.000000	13.047325
1152.000000	13.038452
1153.000000	13.022444
1154.000000	13.010110
1155.000000	12.984476
1156.000000	12.974420
1157.000000	12.956644
1158.000000	12.955754
1159.000000	12.936962
1160.000000	12.916996
1161.000000	12.903563
1162.000000	12.890451
1163.000000	12.878317
1164.000000	12.876988
1165.000000	12.847846
1166.000000	12.831684
1167.000000	12.820865
1168.000000	12.814267
1169.000000	12.801623
1170.000000	12.808963
1171.000000	12.823052
1172.000000	12.822148
1173.000000	12.858176
1174.000000	12.866447
1175.000000	12.893248
1176.000000	12.919663
1177.000000	12.928092
1178.000000	12.943217
1179.000000	12.972158
1180.000000	13.034802
1181.000000	13.097931
1182.000000	13.162894
1183.000000	13.222152
1184.000000	13.282301
1185.000000	13.316718
1186.000000	13.331203
1187.000000	13.342666
1188.000000	13.364144
1189.000000	13.327961
1190.000000	13.295135
1191.000000	13.270079
1192.000000	13.212388
1193.000000	13.163194
1194.000000	13.139714
1195.000000	13.117144
1196.000000	13.111379
1197.000000	13.100822
1198.000000	13.111683
1199.000000	13.109447
1200.000000	13.110994
1201.000000	13.131759
1202.000000	13.129007
1203.000000	13.147639
1204.000000	13.166347
1205.000000	13.198815
1206.000000	13.205641
1207.000000	13.212786
1208.000000	13.200984
1209.000000	13.201287
1210.000000	13.226310
1211.000000	13.239077
1212.000000	13.231315
1213.000000	13.225305
1214.000000	13.212688
1215.000000	13.200073
1216.000000	13.200838
1217.000000	13.189918
1218.000000	13.181578
1219.000000	13.178809
1220.000000	13.164357
1221.000000	13.150878
1222.000000	13.154651
1223.000000	13.135615
1224.000000	13.110803
1225.000000	13.098397
1226.000000	13.085677
1227.000000	13.070374
1228.000000	13.071850
1229.000000	13.057801
1230.000000	13.050617
1231.000000	13.044073
1232.000000	13.037372
1233.000000	13.032480
1234.000000	13.036479
1235.000000	13.028914
1236.000000	13.013982
1237.000000	13.002705
1238.000000	13.001375
1239.000000	13.003754
1240.000000	13.004119
1241.000000	12.998380
1242.000000	12.988362
1243.000000	12.991219
1244.000000	13.005714
1245.000000	13.032323
1246.000000	13.024108
1247.000000	13.024333
1248.000000	13.019313
1249.000000	13.026729
1250.000000	13.013906
1251.000000	13.015587
1252.000000	13.024960
1253.000000	13.025812
1254.000000	13.017756
1255.000000	13.012344
1256.000000	13.008255
1257.000000	13.012859
1258.000000	13.008873
1259.000000	13.001394
1260.000000	12.990380
1261.000000	12.972470
1262.000000	12.974042
1263.000000	12.978428
1264.000000	12.980112
1265.000000	12.985450
1266.000000	12.981784
1267.000000	12.981060
1268.000000	12.984820
1269.000000	12.975158
1270.000000	12.958986
1271.000000	12.946714
1272.000000	12.945300
1273.000000	12.950305
1274.000000	12.956351
1275.000000	12.954149
1276.000000	12.955518
1277.000000	12.956558
1278.000000	12.959257
1279.000000	12.966477
1280.000000	12.971653
1281.000000	12.983957
1282.000000	12.991208
1283.000000	12.983822
1284.000000	12.973837
1285.000000	12.969845
1286.000000	12.973531
1287.000000	12.978148
1288.000000	12.974468
1289.000000	12.984014
1290.000000	12.988771
1291.000000	12.979544
1292.000000	12.979582
1293.000000	12.971943
1294.000000	12.968319
1295.000000	12.979639
1296.000000	12.979350
1297.000000	12.967705
1298.000000	12.954245
1299.000000	12.944305
1300.000000	12.940167
1301.000000	12.937665
1302.000000	12.931589
1303.000000	12.921958
1304.000000	12.903249
1305.000000	12.900182
1306.000000	12.897574
1307.000000	12.890716
1308.000000	12.894686
1309.000000	12.894389
1310.000000	12.886573
1311.000000	12.886261
1312.000000	12.894437
1313.000000	12.901056
1314.000000	12.904255
1315.000000	12.896490
1316.000000	12.884989
1317.000000	12.867418
1318.000000	12.849210
1319.000000	12.847352
1320.000000	12.863839
1321.000000	12.872488
1322.000000	12.858291
1323.000000	12.832869
1324.000000	12.828249
1325.000000	12.816927
1326.000000	12.803798
1327.000000	12.786891
1328.000000	12.772156
1329.000000	12.754115
1330.000000	12.731635
1331.000000	12.722027
1332.000000	12.733979
1333.000000	12.732190
1334.000000	12.709689
1335.000000	12.686166
1336.000000	12.650255
1337.000000	12.615787
1338.000000	12.600450
1339.000000	12.596229
1340.000000	12.592342
1341.000000	12.585920
1342.000000	12.577900
1343.000000	12.576235
1344.000000	12.558041
1345.000000	12.545952
1346.000000	12.537350
1347.000000	12.540134
1348.000000	12.521248
1349.000000	12.498850
1350.000000	12.491684
1351.000000	12.512831
1352.000000	12.536971
1353.000000	12.556548
1354.000000	12.602927
1355.000000	12.626834
1356.000000	12.633067
1357.000000	12.653605
1358.000000	12.679656
1359.000000	12.695261
1360.000000	12.713768
1361.000000	12.735279
1362.000000	12.686086
1363.000000	12.669290
1364.000000	12.693271
1365.000000	12.673856
1366.000000	12.648255
1367.000000	12.676062
1368.000000	12.690970
1369.000000	12.700355
1370.000000	12.747522
1371.000000	12.785741
1372.000000	12.779546
1373.000000	12.781127
1374.000000	12.786685
1375.000000	12.808402
1376.000000	12.817415
1377.000000	12.841547
1378.000000	12.825257
1379.000000	12.852255
1380.000000	12.805550
1381.000000	12.864834
1382.000000	12.822896
1383.000000	12.790940
1384.000000	12.779033
1385.000000	12.769314
1386.000000	12.776591
1387.000000	12.811159
1388.000000	12.806215
1389.000000	12.714315
1390.000000	12.697748
1391.000000	12.726096
1392.000000	12.671853
1393.000000	12.585912
1394.000000	12.585689
1395.000000	12.598266
1396.000000	12.486435
1397.000000	12.368666
1398.000000	12.317139
1399.000000	12.375225
1400.000000	12.347768
1401.000000	12.189317
1402.000000	12.107618
1403.000000	12.134388
1404.000000	12.096560
1405.000000	12.066723
1406.000000	12.016738
1407.000000	11.997792
1408.000000	11.973033
1409.000000	11.955247
1410.000000	11.871402
1411.000000	11.820846
1412.000000	11.798793
1413.000000	11.805454
1414.000000	11.761127
1415.000000	11.657218
1416.000000	11.626282
1417.000000	11.627725
1418.000000	11.609750
1419.000000	11.566682
1420.000000	11.507482
1421.000000	11.475454
1422.000000	11.462236
1423.000000	11.474636
1424.000000	11.445430
1425.000000	11.408462
1426.000000	11.386954
1427.000000	11.400194
1428.000000	11.398807
1429.000000	11.354255
1430.000000	11.361992
1431.000000	11.373854
1432.000000	11.358050
1433.000000	11.344881
1434.000000	11.347326
1435.000000	11.329988
1436.000000	11.337389
1437.000000	11.325235
1438.000000	11.325575
1439.000000	11.327654
1440.000000	11.332382
1441.000000	11.318663
1442.000000	11.313175
1443.000000	11.315508
1444.000000	11.340794
1445.000000	11.339869
1446.000000	11.317732
1447.000000	11.286928
1448.000000	11.297891
1449.000000	11.310619
1450.000000	11.333376
1451.000000	11.331511
1452.000000	11.326312
1453.000000	11.313056
1454.000000	11.302208
1455.000000	11.293968
1456.000000	11.281488
1457.000000	11.264021
1458.000000	11.242683
1459.000000	11.233939
1460.000000	11.232153
1461.000000	11.205306
1462.000000	11.196096
1463.000000	11.191647
1464.000000	11.153860
1465.000000	11.139356
1466.000000	11.117901
1467.000000	11.098290
1468.000000	11.079560
1469.000000	11.068142
1470.000000	11.053075
1471.000000	11.031931
1472.000000	10.996898
1473.000000	10.974308
1474.000000	10.954143
1475.000000	10.946960
1476.000000	10.929601
1477.000000	10.910560
1478.000000	10.889540
1479.000000	10.883042
1480.000000	10.879255
1481.000000	10.870296
1482.000000	10.852279
1483.000000	10.843650
1484.000000	10.823865
1485.000000	10.803614
1486.000000	10.782569
1487.000000	10.767483
1488.000000	10.745320
1489.000000	10.734284
1490.000000	10.719708
1491.000000	10.705862
1492.000000	10.696167
1493.000000	10.682803
1494.000000	10.667400
1495.000000	10.656596
1496.000000	10.651536
1497.000000	10.656598
1498.000000	10.655737
1499.000000	10.638509
1500.000000	10.636839
1501.000000	10.649884
1502.000000	10.670881
1503.000000	10.681159
1504.000000	10.686268
1505.000000	10.691582
1506.000000	10.699507
1507.000000	10.712168
1508.000000	10.728702
1509.000000	10.741186
1510.000000	10.753989
1511.000000	10.764601
1512.000000	10.768382
1513.000000	10.783559
1514.000000	10.801444
1515.000000	10.817221
1516.000000	10.835060
1517.000000	10.853683
1518.000000	10.867167
1519.000000	10.878773
1520.000000	10.884220
1521.000000	10.893176
1522.000000	10.905932
1523.000000	10.918542
1524.000000	10.931006
1525.000000	10.953170
1526.000000	10.970926
1527.000000	10.981573
1528.000000	10.994496
1529.000000	11.011519
1530.000000	11.025276
1531.000000	11.039523
1532.000000	11.052468
1533.000000	11.057968
1534.000000	11.074092
1535.000000	11.094647
1536.000000	11.102632
1537.000000	11.113260
1538.000000	11.127916
1539.000000	11.146960
1540.000000	11.157207
1541.000000	11.175885
1542.000000	11.189969
1543.000000	11.202813
1544.000000	11.220926
1545.000000	11.246112
1546.000000	11.271743
1547.000000	11.297495
1548.000000	11.328017
1549.000000	11.361271
1550.000000	11.391875
1551.000000	11.424656
1552.000000	11.456565
1553.000000	11.486491
1554.000000	11.502960
1555.000000	11.518099
1556.000000	11.538055
1557.000000	11.550251
1558.000000	11.554066
1559.000000	11.568465
1560.000000	11.582774
1561.000000	11.591080
1562.000000	11.607936
1563.000000	11.625487
1564.000000	11.636113
1565.000000	11.642496
1566.000000	11.643157
1567.000000	11.637378
1568.000000	11.636490
1569.000000	11.636127
1570.000000	11.647558
1571.000000	11.654635
1572.000000	11.648207
1573.000000	11.648825
1574.000000	11.660258
1575.000000	11.671439
1576.000000	11.678756
1577.000000	11.694477
1578.000000	11.708280
1579.000000	11.715970
1580.000000	11.720972
1581.000000	11.724249
1582.000000	11.720517
1583.000000	11.725540
1584.000000	11.739874
1585.000000	11.749225
1586.000000	11.759575
1587.000000	11.771680
1588.000000	11.784855
1589.000000	11.794910
1590.000000	11.797893
1591.000000	11.803079
1592.000000	11.810984
1593.000000	11.818158
1594.000000	11.826625
1595.000000	11.833086
1596.000000	11.834334
1597.000000	11.850190
1598.000000	11.863403
1599.000000	11.867577
1600.000000	11.875196
1601.000000	11.878645
1602.000000	11.892220
1603.000000	11.901453
1604.000000	11.901306
1605.000000	11.908567
1606.000000	11.920492
1607.000000	11.922944
1608.000000	11.929944
1609.000000	11.936059
1610.000000	11.931676
1611.000000	11.931623
1612.000000	11.934528
1613.000000	11.938261
1614.000000	11.939494
1615.000000	11.928908
1616.000000	11.916278
1617.000000	11.900042
1618.000000	11.884776
1619.000000	11.868839
1620.000000	11.866198
1621.000000	11.858520
1622.000000	11.842442
1623.000000	11.832088
1624.000000	11.817708
1625.000000	11.807469
1626.000000	11.795918
1627.000000	11.789006
1628.000000	11.774658
1629.000000	11.765125
1630.000000	11.762055
1631.000000	11.747604
1632.000000	11.738840
1633.000000	11.729155
1634.000000	11.702135
1635.000000	11.689268
1636.000000	11.676767
1637.000000	11.657421
1638.000000	11.641309
1639.000000	11.629659
1640.000000	11.610530
1641.000000	11.582088
1642.000000	11.563501
1643.000000	11.549649
1644.000000	11.540637
1645.000000	11.524828
1646.000000	11.521120
1647.000000	11.505562
1648.000000	11.491345
1649.000000	11.473557
1650.000000	11.470399
1651.000000	11.444355
1652.000000	11.414071
1653.000000	11.400409
1654.000000	11.389592
1655.000000	11.370320
1656.000000	11.348903
1657.000000	11.321499
1658.000000	11.299995
1659.000000	11.259791
1660.000000	11.233384
1661.000000	11.195659
1662.000000	11.165172
1663.000000	11.127934
1664.000000	11.084015
1665.000000	11.049705
1666.000000	11.018742
1667.000000	10.984723
1668.000000	10.941343
1669.000000	10.907988
1670.000000	10.879883
1671.000000	10.858559
1672.000000	10.861916
1673.000000	10.850311
1674.000000	10.863274
1675.000000	10.889518
1676.000000	10.924233
1677.000000	10.967319
1678.000000	11.037767
1679.000000	11.115493
1680.000000	11.202988
1681.000000	11.270941
1682.000000	11.324384
1683.000000	11.351153
1684.000000	11.337990
1685.000000	11.312393
1686.000000	11.260077
1687.000000	11.214152
1688.000000	11.196724
1689.000000	11.212637
1690.000000	11.250838
1691.000000	11.328571
1692.000000	11.408895
1693.000000	11.473460
1694.000000	11.541433
1695.000000	11.585915
1696.000000	11.603474
1697.000000	11.603354
1698.000000	11.574834
1699.000000	11.537351
1700.000000	11.501851
1701.000000	11.453602
1702.000000	11.412992
1703.000000	11.380450
1704.000000	11.324396
1705.000000	11.280312
1706.000000	11.238527
1707.000000	11.208145
1708.000000	11.170676
1709.000000	11.124346
1710.000000	11.079993
1711.000000	11.030582
1712.000000	10.972349
1713.000000	10.904437
1714.000000	10.854824
1715.000000	10.810800
1716.000000	10.741441
1717.000000	10.673649
1718.000000	10.599524
1719.000000	10.530033
1720.000000	10.469834
1721.000000	10.417989
1722.000000	10.361593
1723.000000	10.337305
1724.000000	10.323714
1725.000000	10.341883
1726.000000	10.376918
1727.000000	10.413466
1728.000000	10.473373
1729.000000	10.538085
1730.000000	10.592532
1731.000000	10.637079
1732.000000	10.684996
1733.000000	10.717878
1734.000000	10.735557
1735.000000	10.756835
1736.000000	10.749777
1737.000000	10.730594
1738.000000	10.704464
1739.000000	10.679201
1740.000000	10.634021
1741.000000	10.583055
1742.000000	10.550288
1743.000000	10.517555
1744.000000	10.486294
1745.000000	10.458091
1746.000000	10.458514
1747.000000	10.453501
1748.000000	10.439073
1749.000000	10.429273
1750.000000	10.433209
1751.000000	10.443848
1752.000000	10.448277
1753.000000	10.439657
1754.000000	10.430629
1755.000000	10.445585
1756.000000	10.462745
1757.000000	10.479933
1758.000000	10.493452
1759.000000	10.526563
1760.000000	10.554726
1761.000000	10.585291
1762.000000	10.609229
1763.000000	10.624035
1764.000000	10.641248
1765.000000	10.637366
1766.000000	10.634863
1767.000000	10.612327
1768.000000	10.598109
1769.000000	10.583621
1770.000000	10.569385
1771.000000	10.542996
1772.000000	10.525290
1773.000000	10.496582
1774.000000	10.482003
1775.000000	10.469812
1776.000000	10.445124
1777.000000	10.429197
1778.000000	10.422076
1779.000000	10.417060
1780.000000	10.389029
1781.000000	10.360295
1782.000000	10.345693
1783.000000	10.321882
1784.000000	10.299201
1785.000000	10.279095
1786.000000	10.260926
1787.000000	10.235572
1788.000000	10.213137
1789.000000	10.194273
1790.000000	10.178693
1791.000000	10.169608
1792.000000	10.152595
1793.000000	10.142661
1794.000000	10.138484
1795.000000	10.128296
1796.000000	10.123398
1797.000000	10.116583
1798.000000	10.116035
1799.000000	10.124116
1800.000000	10.107827
1801.000000	10.088365
1802.000000	10.073729
1803.000000	10.066259
1804.000000	10.076327
1805.000000	10.081258
1806.000000	10.074937
1807.000000	10.054780
1808.000000	10.037006
1809.000000	10.060311
1810.000000	10.082147
1811.000000	10.071376
1812.000000	10.047470
1813.000000	10.052175
1814.000000	10.066620
1815.000000	10.066699
1816.000000	10.054205
1817.000000	10.046594
1818.000000	10.071569
1819.000000	10.112833
1820.000000	10.103878
1821.000000	10.026162
1822.000000	9.951315
1823.000000	9.945586
1824.000000	9.997422
1825.000000	10.032509
1826.000000	10.023246
1827.000000	9.974917
1828.000000	9.957258
1829.000000	9.958473
1830.000000	9.931763
1831.000000	9.885777
1832.000000	9.865809
1833.000000	9.893783
1834.000000	9.947274
1835.000000	9.969592
1836.000000	9.939487
1837.000000	9.878467
1838.000000	9.833768
1839.000000	9.838042
1840.000000	9.862028
1841.000000	9.840812
1842.000000	9.758337
1843.000000	9.706150
1844.000000	9.751477
1845.000000	9.864636
1846.000000	9.924482
1847.000000	9.883704
1848.000000	9.761337
1849.000000	9.662700
1850.000000	9.653323
1851.000000	9.698140
1852.000000	9.705898
1853.000000	9.680685
1854.000000	9.652267
1855.000000	9.583343
1856.000000	9.553595
1857.000000	9.577293
1858.000000	9.570155
1859.000000	9.521747
1860.000000	9.469351
1861.000000	9.425314
1862.000000	9.404376
1863.000000	9.400049
1864.000000	9.429606
1865.000000	9.460188
1866.000000	9.480087
1867.000000	9.511390
1868.000000	9.487433
1869.000000	9.471592
1870.000000	9.400467
1871.000000	9.314752
1872.000000	9.248666
1873.000000	9.203567
1874.000000	9.169195
1875.000000	9.160905
1876.000000	9.149026
1877.000000	9.167080
1878.000000	9.172203
1879.000000	9.176883
1880.000000	9.210450
1881.000000	9.244227
1882.000000	9.229746
1883.000000	9.208086
1884.000000	9.147245
1885.000000	9.061269
1886.000000	8.997750
1887.000000	8.925352
1888.000000	8.858015
1889.000000	8.741052
1890.000000	8.627312
1891.000000	8.464947
1892.000000	8.267291
1893.000000	8.092781
1894.000000	7.956161
1895.000000	7.846831
1896.000000	7.780518
1897.000000	7.673028
1898.000000	7.479179
1899.000000	7.284476
1900.000000	7.057386
1901.000000	6.882593
1902.000000	6.791548
1903.000000	6.673536
1904.000000	6.547243
1905.000000	6.388866
1906.000000	6.212189
1907.000000	6.082206
1908.000000	6.003566
1909.000000	5.958573
1910.000000	5.940530
1911.000000	5.852709
1912.000000	5.763348
1913.000000	5.655605
1914.000000	5.539774
1915.000000	5.455269
1916.000000	5.442765
1917.000000	5.442665
1918.000000	5.432294
1919.000000	5.372697
1920.000000	5.339700
1921.000000	5.257114
1922.000000	5.190908
1923.000000	5.181118
1924.000000	5.196799
1925.000000	5.181092
1926.000000	5.167096
1927.000000	5.145928
1928.000000	5.115789
1929.000000	5.111400
1930.000000	5.113032
1931.000000	5.129937
1932.000000	5.127064
1933.000000	5.146560
1934.000000	5.154333
1935.000000	5.172794
1936.000000	5.193065
1937.000000	5.197442
1938.000000	5.202909
1939.000000	5.209844
1940.000000	5.219914
1941.000000	5.272754
1942.000000	5.286223
1943.000000	5.313340
1944.000000	5.340935
1945.000000	5.356032
1946.000000	5.372954
1947.000000	5.408469
1948.000000	5.439074
1949.000000	5.467472
1950.000000	5.495891
1951.000000	5.519157
1952.000000	5.542367
1953.000000	5.575826
1954.000000	5.595441
1955.000000	5.601569
1956.000000	5.623230
1957.000000	5.644954
1958.000000	5.668840
1959.000000	5.700978
1960.000000	5.735000
1961.000000	5.748739
1962.000000	5.770614
1963.000000	5.791507
1964.000000	5.819416
1965.000000	5.847686
1966.000000	5.856187
1967.000000	5.883242
1968.000000	5.895998
1969.000000	5.914228
1970.000000	5.935086
1971.000000	5.953879
1972.000000	5.967372
1973.000000	5.970397
1974.000000	5.985866
1975.000000	6.016123
1976.000000	6.042759
1977.000000	6.062741
1978.000000	6.071645
1979.000000	6.078659
1980.000000	6.095738
1981.000000	6.116796
1982.000000	6.148548
1983.000000	6.158188
1984.000000	6.180838
1985.000000	6.206222
1986.000000	6.211416
1987.000000	6.235704
1988.000000	6.264251
1989.000000	6.281681
1990.000000	6.302333
1991.000000	6.315394
1992.000000	6.330890
1993.000000	6.346901
1994.000000	6.369590
1995.000000	6.377473
1996.000000	6.403210
1997.000000	6.432857
1998.000000	6.432004
1999.000000	6.427068
2000.000000	6.452585
2001.000000	6.478274
2002.000000	6.480084
2003.000000	6.479414
2004.000000	6.488838
2005.000000	6.486354
2006.000000	6.499937
2007.000000	6.501299
2008.000000	6.516725
2009.000000	6.520712
2010.000000	6.507010
2011.000000	6.513539
2012.000000	6.503227
2013.000000	6.498377
2014.000000	6.492340
2015.000000	6.487320
2016.000000	6.472359
2017.000000	6.464876
2018.000000	6.456915
2019.000000	6.445751
2020.000000	6.435944
2021.000000	6.428165
2022.000000	6.402635
2023.000000	6.375994
2024.000000	6.368406
2025.000000	6.358443
2026.000000	6.343339
2027.000000	6.305912
2028.000000	6.272701
2029.000000	6.253071
2030.000000	6.235626
2031.000000	6.219514
2032.000000	6.191332
2033.000000	6.153905
2034.000000	6.125362
2035.000000	6.097980
2036.000000	6.066684
2037.000000	6.034080
2038.000000	5.991711
2039.000000	5.965548
2040.000000	5.932925
2041.000000	5.896722
2042.000000	5.864127
2043.000000	5.826492
2044.000000	5.777457
2045.000000	5.740237
2046.000000	5.712029
2047.000000	5.687173
2048.000000	5.661024
2049.000000	5.638461
2050.000000	5.617649
2051.000000	5.607006
2052.000000	5.587624
2053.000000	5.582393
2054.000000	5.583574
2055.000000	5.593435
2056.000000	5.594359
2057.000000	5.607439
2058.000000	5.638192
2059.000000	5.664499
2060.000000	5.697593
2061.000000	5.727988
2062.000000	5.760148
2063.000000	5.793597
2064.000000	5.833238
2065.000000	5.867386
2066.000000	5.906780
2067.000000	5.952764
2068.000000	5.991400
2069.000000	6.034350
2070.000000	6.071648
2071.000000	6.103702
2072.000000	6.134606
2073.000000	6.168982
2074.000000	6.200140
2075.000000	6.226150
2076.000000	6.251211
2077.000000	6.271876
2078.000000	6.295334
2079.000000	6.319325
2080.000000	6.335696
2081.000000	6.341379
2082.000000	6.351080
2083.000000	6.352457
2084.000000	6.351044
2085.000000	6.353937
2086.000000	6.356143
2087.000000	6.353771
2088.000000	6.346803
2089.000000	6.339220
2090.000000	6.333175
2091.000000	6.325533
2092.000000	6.313810
2093.000000	6.299411
2094.000000	6.288757
2095.000000	6.280333
2096.000000	6.269595
2097.000000	6.255239
2098.000000	6.247339
2099.000000	6.241543
2100.000000	6.236802
2101.000000	6.231018
2102.000000	6.221378
2103.000000	6.204103
2104.000000	6.188233
2105.000000	6.183870
2106.000000	6.182539
2107.000000	6.172348
2108.000000	6.162578
2109.000000	6.150561
2110.000000	6.134469
2111.000000	6.122598
2112.000000	6.112353
2113.000000	6.096685
2114.000000	6.079615
2115.000000	6.070560
2116.000000	6.048765
2117.000000	6.026290
2118.000000	6.017519
2119.000000	5.997928
2120.000000	5.974178
2121.000000	5.952262
2122.000000	5.920572
2123.000000	5.897232
2124.000000	5.868362
2125.000000	5.834512
2126.000000	5.814924
2127.000000	5.783480
2128.000000	5.747962
2129.000000	5.714712
2130.000000	5.685214
2131.000000	5.656039
2132.000000	5.619508
2133.000000	5.585723
2134.000000	5.555509
2135.000000	5.514355
2136.000000	5.477865
2137.000000	5.437318
2138.000000	5.398454
2139.000000	5.357906
2140.000000	5.314710
2141.000000	5.273418
2142.000000	5.234088
2143.000000	5.193489
2144.000000	5.159624
2145.000000	5.118734
2146.000000	5.073647
2147.000000	5.031188
2148.000000	4.993853
2149.000000	4.946744
2150.000000	4.916646
2151.000000	4.887615
2152.000000	4.843384
2153.000000	4.801640
2154.000000	4.769270
2155.000000	4.740508
2156.000000	4.705762
2157.000000	4.670836
2158.000000	4.642644
2159.000000	4.619628
2160.000000	4.588779
2161.000000	4.569963
2162.000000	4.552510
2163.000000	4.532974
2164.000000	4.511304
2165.000000	4.503148
2166.000000	4.492973
2167.000000	4.488448
2168.000000	4.482723
2169.000000	4.477683
2170.000000	4.485457
2171.000000	4.480941
2172.000000	4.468186
2173.000000	4.457312
2174.000000	4.463589
2175.000000	4.476765
2176.000000	4.478503
2177.000000	4.473468
2178.000000	4.486656
2179.000000	4.484477
2180.000000	4.495309
2181.000000	4.499069
2182.000000	4.501854
2183.000000	4.504249
2184.000000	4.504411
2185.000000	4.515359
2186.000000	4.519565
2187.000000	4.534231
2188.000000	4.542320
2189.000000	4.543557
2190.000000	4.561723
2191.000000	4.570904
2192.000000	4.582080
2193.000000	4.591618
2194.000000	4.577672
2195.000000	4.588303
2196.000000	4.597155
2197.000000	4.620191
2198.000000	4.631335
2199.000000	4.627266
2200.000000	4.643025
2201.000000	4.648474
2202.000000	4.671347
2203.000000	4.684974
2204.000000	4.693039
2205.000000	4.710034
2206.000000	4.724927
2207.000000	4.736323
2208.000000	4.749350
2209.000000	4.775862
2210.000000	4.797546
2211.000000	4.810522
2212.000000	4.826551
2213.000000	4.852701
2214.000000	4.883057
2215.000000	4.905433
2216.000000	4.940973
2217.000000	4.957027
2218.000000	4.975398
2219.000000	5.007602
2220.000000	5.034032
2221.000000	5.053645
2222.000000	5.087857
2223.000000	5.117530
2224.000000	5.149660
2225.000000	5.165913
2226.000000	5.192870
2227.000000	5.219521
2228.000000	5.245104
2229.000000	5.252856
2230.000000	5.282660
2231.000000	5.303427
2232.000000	5.310836
2233.000000	5.338869
2234.000000	5.349398
2235.000000	5.356735
2236.000000	5.367578
2237.000000	5.372259
2238.000000	5.377326
2239.000000	5.377710
2240.000000	5.390239
2241.000000	5.370177
2242.000000	5.378785
2243.000000	5.371792
2244.000000	5.350270
2245.000000	5.324916
2246.000000	5.322325
2247.000000	5.298743
2248.000000	5.294977
2249.000000	5.285632
2250.000000	5.253469
2251.000000	5.239146
2252.000000	5.217423
2253.000000	5.213041
2254.000000	5.200884
2255.000000	5.173911
2256.000000	5.164173
2257.000000	5.167337
2258.000000	5.165250
2259.000000	5.176062
2260.000000	5.147706
2261.000000	5.149314
2262.000000	5.155933
2263.000000	5.163539
2264.000000	5.150178
2265.000000	5.149638
2266.000000	5.144518
2267.000000	5.152022
2268.000000	5.139786
2269.000000	5.138939
2270.000000	5.128412
2271.000000	5.113751
2272.000000	5.116118
2273.000000	5.095557
2274.000000	5.083296
2275.000000	5.063487
2276.000000	5.050639
2277.000000	5.019548
2278.000000	4.994573
2279.000000	4.978553
2280.000000	4.960059
2281.000000	4.924441
2282.000000	4.901565
2283.000000	4.877183
2284.000000	4.854040
2285.000000	4.816776
2286.000000	4.786098
2287.000000	4.773281
2288.000000	4.757984
2289.000000	4.748640
2290.000000	4.736731
2291.000000	4.724582
2292.000000	4.721443
2293.000000	4.726836
2294.000000	4.728451
2295.000000	4.735436
2296.000000	4.745982
2297.000000	4.769784
2298.000000	4.781235
2299.000000	4.798578
2300.000000	4.826350
2301.000000	4.855091
2302.000000	4.867463
2303.000000	4.883371
2304.000000	4.909068
2305.000000	4.927137
2306.000000	4.938764
2307.000000	4.959989
2308.000000	4.973964
2309.000000	4.976078
2310.000000	4.973357
2311.000000	4.974105
2312.000000	4.973645
2313.000000	4.967661
2314.000000	4.967004
2315.000000	4.955987
2316.000000	4.935420
2317.000000	4.915405
2318.000000	4.894153
2319.000000	4.889217
2320.000000	4.875903
2321.000000	4.850473
2322.000000	4.825927
2323.000000	4.807126
2324.000000	4.784247
2325.000000	4.752901
2326.000000	4.737579
2327.000000	4.719626
2328.000000	4.699052
2329.000000	4.684070
2330.000000	4.670016
2331.000000	4.650816
2332.000000	4.633876
2333.000000	4.625355
2334.000000	4.620374
2335.000000	4.625371
2336.000000	4.623558
2337.000000	4.623492
2338.000000	4.622433
2339.000000	4.630582
2340.000000	4.650042
2341.000000	4.660496
2342.000000	4.669891
2343.000000	4.671346
2344.000000	4.691236
2345.000000	4.717110
2346.000000	4.726384
2347.000000	4.746167
2348.000000	4.761141
2349.000000	4.771886
2350.000000	4.789389
2351.000000	4.808068
2352.000000	4.819926
2353.000000	4.819623
2354.000000	4.827269
2355.000000	4.837449
2356.000000	4.833342
2357.000000	4.834911
2358.000000	4.842959
2359.000000	4.846948
2360.000000	4.834924
2361.000000	4.817466
2362.000000	4.818064
2363.000000	4.814372
2364.000000	4.801607
2365.000000	4.794794
2366.000000	4.788168
2367.000000	4.777682
2368.000000	4.775385
2369.000000	4.780799
2370.000000	4.777581
2371.000000	4.780408
2372.000000	4.780740
2373.000000	4.781448
2374.000000	4.789738
2375.000000	4.800647
2376.000000	4.811803
2377.000000	4.821367
2378.000000	4.822502
2379.000000	4.824770
2380.000000	4.842581
2381.000000	4.856990
2382.000000	4.856574
2383.000000	4.857155
2384.000000	4.871090
2385.000000	4.877468
2386.000000	4.876703
2387.000000	4.879816
2388.000000	4.895664
2389.000000	4.900855
2390.000000	4.903315
2391.000000	4.914290
2392.000000	4.913502
2393.000000	4.912614
2394.000000	4.922248
2395.000000	4.921834
2396.000000	4.923104
2397.000000	4.933000
2398.000000	4.930474
2399.000000	4.936961
2400.000000	4.939536
2401.000000	4.933557
2402.000000	4.928497
2403.000000	4.928630
2404.000000	4.930229
2405.000000	4.935199
2406.000000	4.937644
2407.000000	4.930789
2408.000000	4.923057
2409.000000	4.919361
2410.000000	4.928705
2411.000000	4.937947
2412.000000	4.928597
2413.000000	4.917824
2414.000000	4.915528
2415.000000	4.904678
2416.000000	4.887130
2417.000000	4.882069
2418.000000	4.875118
2419.000000	4.853222
2420.000000	4.832114
2421.000000	4.817714
2422.000000	4.802193
2423.000000	4.785979
2424.000000	4.783602
2425.000000	4.778551
2426.000000	4.778947
2427.000000	4.762508
2428.000000	4.738468
2429.000000	4.728936
2430.000000	4.696038
2431.000000	4.665533
2432.000000	4.640502
2433.000000	4.626434
2434.000000	4.591580
2435.000000	4.570855
2436.000000	4.545513
2437.000000	4.515291
2438.000000	4.481359
2439.000000	4.463066
2440.000000	4.443711
2441.000000	4.411879
2442.000000	4.377909
2443.000000	4.352747
2444.000000	4.333940
2445.000000	4.306561
2446.000000	4.273871
2447.000000	4.244263
2448.000000	4.221533
2449.000000	4.198593
2450.000000	4.171241
2451.000000	4.148621
2452.000000	4.111134
2453.000000	4.101679
2454.000000	4.063741
2455.000000	4.043648
2456.000000	4.028034
2457.000000	4.016318
2458.000000	3.998819
2459.000000	3.970072
2460.000000	3.960584
2461.000000	3.959281
2462.000000	3.934284
2463.000000	3.915954
2464.000000	3.916280
2465.000000	3.902832
2466.000000	3.899743
2467.000000	3.892419
2468.000000	3.867145
2469.000000	3.859806
2470.000000	3.848589
2471.000000	3.828833
2472.000000	3.799537
2473.000000	3.799230
2474.000000	3.796489
2475.000000	3.753019
2476.000000	3.748625
2477.000000	3.760214
2478.000000	3.786632
2479.000000	3.736946
2480.000000	3.748129
2481.000000	3.722536
2482.000000	3.724416
2483.000000	3.745719
2484.000000	3.741617
2485.000000	3.706575
2486.000000	3.728591
2487.000000	3.724908
2488.000000	3.711174
2489.000000	3.725768
2490.000000	3.769515
2491.000000	3.737399
2492.000000	3.684531
2493.000000	3.705435
2494.000000	3.743864
2495.000000	3.705618
2496.000000	3.747275
2497.000000	3.750039
2498.000000	3.703360
2499.000000	3.804739
2500.000000	3.780120
