PE UV       SUBTECH     SPECTRUM    ASCII       PEDS        4.00        
   -1
CICIMAUCR0112-3.Sample.ASC
24/04/22
10:19:40.00
24/04/22
10:19:40.00
Vinicio Soto Monge
C. resplendens
250,000000
1
Lambda 1050
1050L1511233
PerkinElmer UV WinLab 6.3.2.0749 / 2.02.05 Lambda 900 UV/VIS/NIR, Aug  7 2015 09:38:08

0
0
3350/servo 860,8/2
0
0
UV/VIS
1
1
1
DoubleDePol,CommonBeamDepol,RBeamAtt,SBeamAtt,60mm sphere, WB InGaAs Detector
0
0
0
0
Program
Program
3350/servo 860,8/2
3350/0,2 860,8/0,2
3350/0,2 860,8/0,2
0
15.00
 
 
 
0
 
860,8
319,2
860,8
Front
100
on
S:100 R:100
0
0
0
0
 
0
 
 
 
0
 
 
0
0
0
0
0
 
 
 
 
0
0


0
0
#HDR
-1
-1
#GR
nm
%R
1.0
0.0
2500,000000
-1,000000
2251
8
88,787000
5,681000
#DATA
250.000000	0.103403
251.000000	0.108765
252.000000	0.098069
253.000000	0.091334
254.000000	0.091790
255.000000	0.131816
256.000000	0.111843
257.000000	0.092575
258.000000	0.104385
259.000000	0.090428
260.000000	0.064269
261.000000	0.129037
262.000000	0.134083
263.000000	0.101779
264.000000	0.082925
265.000000	0.104185
266.000000	0.079904
267.000000	0.087428
268.000000	0.083787
269.000000	0.063911
270.000000	0.091181
271.000000	0.089224
272.000000	0.078297
273.000000	0.087406
274.000000	0.090057
275.000000	0.070140
276.000000	0.064150
277.000000	0.074913
278.000000	0.102701
279.000000	0.068686
280.000000	0.064331
281.000000	0.091973
282.000000	0.084965
283.000000	0.088554
284.000000	0.071189
285.000000	0.086302
286.000000	0.066566
287.000000	0.095667
288.000000	0.086115
289.000000	0.100694
290.000000	0.090141
291.000000	0.087087
292.000000	0.112334
293.000000	0.110791
294.000000	0.149378
295.000000	0.105792
296.000000	0.097354
297.000000	0.136573
298.000000	0.127198
299.000000	0.144020
300.000000	0.122451
301.000000	0.149081
302.000000	0.105699
303.000000	0.149698
304.000000	0.116732
305.000000	0.156767
306.000000	0.119408
307.000000	0.132034
308.000000	0.139093
309.000000	0.178751
310.000000	0.151021
311.000000	0.137488
312.000000	0.131705
313.000000	0.166952
314.000000	0.142714
315.000000	0.153713
316.000000	0.154239
317.000000	0.192193
318.000000	0.152109
319.000000	0.134651
320.000000	0.136427
321.000000	0.198809
322.000000	0.282811
323.000000	0.122213
324.000000	0.198172
325.000000	0.169428
326.000000	0.127658
327.000000	0.155185
328.000000	0.157768
329.000000	0.175128
330.000000	0.151599
331.000000	0.159831
332.000000	0.174536
333.000000	0.161352
334.000000	0.169615
335.000000	0.194514
336.000000	0.221578
337.000000	0.172539
338.000000	0.225030
339.000000	0.187295
340.000000	0.165280
341.000000	0.124004
342.000000	0.129986
343.000000	0.157306
344.000000	0.161137
345.000000	0.186024
346.000000	0.197858
347.000000	0.143288
348.000000	0.165659
349.000000	0.156645
350.000000	0.170614
351.000000	0.174301
352.000000	0.132771
353.000000	0.176677
354.000000	0.162134
355.000000	0.177119
356.000000	0.150091
357.000000	0.144327
358.000000	0.165853
359.000000	0.167360
360.000000	0.168151
361.000000	0.162871
362.000000	0.158753
363.000000	0.191901
364.000000	0.195296
365.000000	0.191186
366.000000	0.168096
367.000000	0.169928
368.000000	0.176015
369.000000	0.151010
370.000000	0.173460
371.000000	0.172851
372.000000	0.209527
373.000000	0.227088
374.000000	0.197308
375.000000	0.168589
376.000000	0.153005
377.000000	0.159013
378.000000	0.146497
379.000000	0.134066
380.000000	0.137774
381.000000	0.143935
382.000000	0.135218
383.000000	0.138165
384.000000	0.140873
385.000000	0.133054
386.000000	0.136258
387.000000	0.138888
388.000000	0.139925
389.000000	0.142737
390.000000	0.144426
391.000000	0.145767
392.000000	0.144363
393.000000	0.143929
394.000000	0.151798
395.000000	0.169340
396.000000	0.184508
397.000000	0.191517
398.000000	0.217445
399.000000	0.245820
400.000000	0.263065
401.000000	0.299482
402.000000	0.337936
403.000000	0.386420
404.000000	0.438043
405.000000	0.490219
406.000000	0.540402
407.000000	0.606306
408.000000	0.675493
409.000000	0.758310
410.000000	0.836434
411.000000	0.909451
412.000000	0.993332
413.000000	1.082149
414.000000	1.173519
415.000000	1.255954
416.000000	1.343859
417.000000	1.436002
418.000000	1.523830
419.000000	1.596449
420.000000	1.677611
421.000000	1.756800
422.000000	1.829252
423.000000	1.887384
424.000000	1.933450
425.000000	1.967946
426.000000	2.000614
427.000000	2.026118
428.000000	2.045205
429.000000	2.057404
430.000000	2.047403
431.000000	2.017978
432.000000	1.989688
433.000000	1.968382
434.000000	1.945017
435.000000	1.902715
436.000000	1.835932
437.000000	1.780380
438.000000	1.741767
439.000000	1.686409
440.000000	1.612808
441.000000	1.553075
442.000000	1.498550
443.000000	1.443860
444.000000	1.395792
445.000000	1.326718
446.000000	1.292534
447.000000	1.262074
448.000000	1.199549
449.000000	1.152177
450.000000	1.102175
451.000000	1.061957
452.000000	1.030698
453.000000	0.989629
454.000000	0.962734
455.000000	0.925709
456.000000	0.899214
457.000000	0.866487
458.000000	0.839478
459.000000	0.818440
460.000000	0.785966
461.000000	0.766722
462.000000	0.742459
463.000000	0.715896
464.000000	0.681268
465.000000	0.633524
466.000000	0.593950
467.000000	0.557474
468.000000	0.515130
469.000000	0.470471
470.000000	0.419148
471.000000	0.368766
472.000000	0.322659
473.000000	0.263937
474.000000	0.223357
475.000000	0.177221
476.000000	0.101183
477.000000	0.037087
478.000000	0.037565
479.000000	0.116863
480.000000	0.185703
481.000000	0.246525
482.000000	0.301068
483.000000	0.357061
484.000000	0.404293
485.000000	0.432503
486.000000	0.449237
487.000000	0.448164
488.000000	0.441861
489.000000	0.445141
490.000000	0.474643
491.000000	0.553041
492.000000	0.693871
493.000000	0.881337
494.000000	1.121826
495.000000	1.410114
496.000000	1.740601
497.000000	2.076641
498.000000	2.413071
499.000000	2.782231
500.000000	3.166119
501.000000	3.548390
502.000000	3.928386
503.000000	4.288198
504.000000	4.617244
505.000000	4.911951
506.000000	5.168343
507.000000	5.397330
508.000000	5.575866
509.000000	5.716298
510.000000	5.810786
511.000000	5.896576
512.000000	5.920453
513.000000	5.915447
514.000000	5.876851
515.000000	5.806969
516.000000	5.737152
517.000000	5.638979
518.000000	5.517093
519.000000	5.397379
520.000000	5.249929
521.000000	5.113802
522.000000	4.965015
523.000000	4.856612
524.000000	4.706059
525.000000	4.562146
526.000000	4.433427
527.000000	4.348439
528.000000	4.250144
529.000000	4.136905
530.000000	4.010661
531.000000	3.901853
532.000000	3.791994
533.000000	3.673729
534.000000	3.565013
535.000000	3.421100
536.000000	3.290984
537.000000	3.166527
538.000000	3.048669
539.000000	2.930340
540.000000	2.828712
541.000000	2.695333
542.000000	2.584295
543.000000	2.497640
544.000000	2.428121
545.000000	2.335374
546.000000	2.262939
547.000000	2.186257
548.000000	2.094221
549.000000	2.027632
550.000000	1.965758
551.000000	1.921689
552.000000	1.847186
553.000000	1.773584
554.000000	1.697342
555.000000	1.623051
556.000000	1.596403
557.000000	1.513308
558.000000	1.474908
559.000000	1.415290
560.000000	1.359054
561.000000	1.311699
562.000000	1.294496
563.000000	1.277389
564.000000	1.231837
565.000000	1.194363
566.000000	1.194764
567.000000	1.175703
568.000000	1.159398
569.000000	1.148383
570.000000	1.150878
571.000000	1.155428
572.000000	1.154684
573.000000	1.154762
574.000000	1.159414
575.000000	1.195822
576.000000	1.160319
577.000000	1.178494
578.000000	1.193766
579.000000	1.196096
580.000000	1.200069
581.000000	1.243149
582.000000	1.269847
583.000000	1.259473
584.000000	1.317242
585.000000	1.396345
586.000000	1.483518
587.000000	1.515767
588.000000	1.586259
589.000000	1.663688
590.000000	1.733294
591.000000	1.800812
592.000000	1.857961
593.000000	1.941898
594.000000	1.963193
595.000000	2.054497
596.000000	2.160350
597.000000	2.217747
598.000000	2.299330
599.000000	2.394103
600.000000	2.521799
601.000000	2.624921
602.000000	2.727314
603.000000	2.876001
604.000000	2.989922
605.000000	3.146443
606.000000	3.283929
607.000000	3.452645
608.000000	3.600786
609.000000	3.786714
610.000000	3.919337
611.000000	4.081314
612.000000	4.187007
613.000000	4.321014
614.000000	4.387044
615.000000	4.448899
616.000000	4.456757
617.000000	4.435857
618.000000	4.439314
619.000000	4.373739
620.000000	4.296766
621.000000	4.213335
622.000000	4.136071
623.000000	4.024852
624.000000	3.959913
625.000000	3.901179
626.000000	3.828414
627.000000	3.770728
628.000000	3.716392
629.000000	3.619394
630.000000	3.461976
631.000000	3.354403
632.000000	3.155418
633.000000	2.824633
634.000000	2.488891
635.000000	2.076920
636.000000	1.624904
637.000000	1.150622
638.000000	0.659039
639.000000	0.411855
640.000000	0.676160
641.000000	1.104840
642.000000	1.537241
643.000000	1.915876
644.000000	2.230018
645.000000	2.454686
646.000000	2.626328
647.000000	2.728105
648.000000	2.811084
649.000000	2.851513
650.000000	2.859002
651.000000	2.871796
652.000000	2.920696
653.000000	2.994061
654.000000	3.052685
655.000000	3.113615
656.000000	3.206464
657.000000	3.262256
658.000000	3.339007
659.000000	3.405119
660.000000	3.411700
661.000000	3.402315
662.000000	3.374670
663.000000	3.298392
664.000000	3.128778
665.000000	2.949617
666.000000	2.718352
667.000000	2.490075
668.000000	2.248326
669.000000	1.987086
670.000000	1.775415
671.000000	1.584560
672.000000	1.433239
673.000000	1.349407
674.000000	1.303078
675.000000	1.301877
676.000000	1.375914
677.000000	1.415433
678.000000	1.514455
679.000000	1.566621
680.000000	1.638951
681.000000	1.652245
682.000000	1.690105
683.000000	1.672165
684.000000	1.644531
685.000000	1.576337
686.000000	1.491438
687.000000	1.349466
688.000000	1.263449
689.000000	1.159907
690.000000	1.059593
691.000000	0.937304
692.000000	0.867055
693.000000	0.831001
694.000000	0.815330
695.000000	0.815020
696.000000	0.867566
697.000000	0.921229
698.000000	0.951538
699.000000	0.989125
700.000000	1.035406
701.000000	1.085341
702.000000	1.134271
703.000000	1.205186
704.000000	1.184260
705.000000	1.180821
706.000000	1.138877
707.000000	1.121381
708.000000	1.115508
709.000000	1.039228
710.000000	1.011021
711.000000	0.950070
712.000000	0.896581
713.000000	0.932259
714.000000	0.963958
715.000000	1.049088
716.000000	1.163232
717.000000	1.273679
718.000000	1.429238
719.000000	1.585279
720.000000	1.742403
721.000000	1.911180
722.000000	2.061583
723.000000	2.240790
724.000000	2.349907
725.000000	2.445535
726.000000	2.566219
727.000000	2.660887
728.000000	2.742771
729.000000	2.756033
730.000000	2.783962
731.000000	2.856686
732.000000	2.891770
733.000000	2.900788
734.000000	2.931323
735.000000	2.999912
736.000000	2.996401
737.000000	3.021218
738.000000	3.064504
739.000000	3.072680
740.000000	3.086517
741.000000	3.137624
742.000000	3.167164
743.000000	3.197772
744.000000	3.220748
745.000000	3.182457
746.000000	3.190590
747.000000	3.166192
748.000000	3.085860
749.000000	3.017119
750.000000	2.899436
751.000000	2.779350
752.000000	2.691288
753.000000	2.603444
754.000000	2.504587
755.000000	2.399256
756.000000	2.272091
757.000000	2.172312
758.000000	2.086090
759.000000	2.058326
760.000000	2.027150
761.000000	1.926589
762.000000	1.912022
763.000000	1.920244
764.000000	1.863300
765.000000	1.839950
766.000000	1.848634
767.000000	1.862349
768.000000	1.841008
769.000000	1.873081
770.000000	1.861461
771.000000	1.722344
772.000000	1.658984
773.000000	1.703429
774.000000	1.685942
775.000000	1.670018
776.000000	1.594382
777.000000	1.548560
778.000000	1.483352
779.000000	1.373775
780.000000	1.358632
781.000000	1.446083
782.000000	1.432410
783.000000	1.332569
784.000000	1.291735
785.000000	1.279716
786.000000	1.237475
787.000000	1.204646
788.000000	1.110864
789.000000	1.042877
790.000000	1.030858
791.000000	1.032897
792.000000	0.966589
793.000000	0.848575
794.000000	0.788305
795.000000	0.744589
796.000000	0.760857
797.000000	0.669765
798.000000	0.635391
799.000000	0.634140
800.000000	0.517828
801.000000	0.534424
802.000000	0.432940
803.000000	0.408608
804.000000	0.468379
805.000000	0.378505
806.000000	0.265507
807.000000	0.354313
808.000000	0.305433
809.000000	0.293799
810.000000	0.329129
811.000000	0.270578
812.000000	0.285373
813.000000	0.386346
814.000000	0.422971
815.000000	0.385812
816.000000	0.294903
817.000000	0.265885
818.000000	0.358240
819.000000	0.479537
820.000000	0.567122
821.000000	0.464655
822.000000	0.516187
823.000000	0.603806
824.000000	0.517005
825.000000	0.565932
826.000000	0.608564
827.000000	0.807306
828.000000	0.871252
829.000000	0.846297
830.000000	0.878763
831.000000	0.964032
832.000000	1.065839
833.000000	1.165525
834.000000	1.250141
835.000000	1.496667
836.000000	1.582235
837.000000	1.793355
838.000000	1.721208
839.000000	1.671602
840.000000	1.845405
841.000000	2.064235
842.000000	2.118767
843.000000	2.200529
844.000000	2.281328
845.000000	2.305809
846.000000	2.281554
847.000000	2.554935
848.000000	2.588881
849.000000	2.509591
850.000000	2.604210
851.000000	2.676218
852.000000	2.368974
853.000000	2.903993
854.000000	2.617225
855.000000	2.665589
856.000000	2.711093
857.000000	2.425418
858.000000	2.600579
859.000000	3.010946
860.000000	2.858577
861.000000	2.713004
862.000000	2.629810
863.000000	2.502936
864.000000	2.406031
865.000000	2.313581
866.000000	2.238823
867.000000	2.156269
868.000000	2.061375
869.000000	1.984256
870.000000	1.930029
871.000000	1.844557
872.000000	1.767341
873.000000	1.693693
874.000000	1.648305
875.000000	1.569343
876.000000	1.511280
877.000000	1.485181
878.000000	1.454363
879.000000	1.386983
880.000000	1.353764
881.000000	1.352610
882.000000	1.318928
883.000000	1.307772
884.000000	1.315269
885.000000	1.301871
886.000000	1.284386
887.000000	1.304487
888.000000	1.316379
889.000000	1.335357
890.000000	1.354634
891.000000	1.356873
892.000000	1.378231
893.000000	1.387751
894.000000	1.414962
895.000000	1.398808
896.000000	1.383316
897.000000	1.386753
898.000000	1.395589
899.000000	1.402223
900.000000	1.414246
901.000000	1.412092
902.000000	1.423003
903.000000	1.431883
904.000000	1.450335
905.000000	1.456688
906.000000	1.455284
907.000000	1.473139
908.000000	1.494245
909.000000	1.497049
910.000000	1.497086
911.000000	1.511655
912.000000	1.512726
913.000000	1.515765
914.000000	1.534047
915.000000	1.528498
916.000000	1.540008
917.000000	1.538785
918.000000	1.554681
919.000000	1.553503
920.000000	1.545051
921.000000	1.543055
922.000000	1.554688
923.000000	1.560761
924.000000	1.571631
925.000000	1.585474
926.000000	1.572720
927.000000	1.592735
928.000000	1.612629
929.000000	1.621754
930.000000	1.623656
931.000000	1.629694
932.000000	1.642064
933.000000	1.641774
934.000000	1.656243
935.000000	1.663443
936.000000	1.675297
937.000000	1.645669
938.000000	1.664786
939.000000	1.682575
940.000000	1.672520
941.000000	1.671014
942.000000	1.686189
943.000000	1.708989
944.000000	1.686380
945.000000	1.697659
946.000000	1.713845
947.000000	1.733102
948.000000	1.721653
949.000000	1.735915
950.000000	1.735125
951.000000	1.739134
952.000000	1.732844
953.000000	1.744058
954.000000	1.747194
955.000000	1.750890
956.000000	1.762131
957.000000	1.742024
958.000000	1.720604
959.000000	1.711483
960.000000	1.725383
961.000000	1.749480
962.000000	1.738071
963.000000	1.712722
964.000000	1.715650
965.000000	1.732137
966.000000	1.770289
967.000000	1.765554
968.000000	1.757218
969.000000	1.769226
970.000000	1.778854
971.000000	1.778469
972.000000	1.789423
973.000000	1.784368
974.000000	1.786740
975.000000	1.781538
976.000000	1.791287
977.000000	1.792660
978.000000	1.798188
979.000000	1.785316
980.000000	1.789017
981.000000	1.804325
982.000000	1.801494
983.000000	1.793928
984.000000	1.804862
985.000000	1.829319
986.000000	1.825625
987.000000	1.827830
988.000000	1.841751
989.000000	1.862492
990.000000	1.878087
991.000000	1.872992
992.000000	1.868569
993.000000	1.898565
994.000000	1.928003
995.000000	1.936610
996.000000	1.948746
997.000000	1.962388
998.000000	1.989989
999.000000	2.010079
1000.000000	2.020383
1001.000000	2.025183
1002.000000	2.042776
1003.000000	2.063997
1004.000000	2.085974
1005.000000	2.104528
1006.000000	2.115226
1007.000000	2.133744
1008.000000	2.160065
1009.000000	2.192315
1010.000000	2.217775
1011.000000	2.242969
1012.000000	2.268161
1013.000000	2.279117
1014.000000	2.301725
1015.000000	2.317889
1016.000000	2.329268
1017.000000	2.343077
1018.000000	2.340235
1019.000000	2.334252
1020.000000	2.338109
1021.000000	2.340805
1022.000000	2.332336
1023.000000	2.331920
1024.000000	2.330077
1025.000000	2.321521
1026.000000	2.311504
1027.000000	2.300134
1028.000000	2.306154
1029.000000	2.316497
1030.000000	2.311889
1031.000000	2.311534
1032.000000	2.315548
1033.000000	2.312976
1034.000000	2.314033
1035.000000	2.327676
1036.000000	2.333453
1037.000000	2.329137
1038.000000	2.334354
1039.000000	2.342375
1040.000000	2.344698
1041.000000	2.354636
1042.000000	2.363921
1043.000000	2.371052
1044.000000	2.373765
1045.000000	2.374829
1046.000000	2.375481
1047.000000	2.376065
1048.000000	2.379095
1049.000000	2.381463
1050.000000	2.375782
1051.000000	2.373429
1052.000000	2.382031
1053.000000	2.378840
1054.000000	2.365017
1055.000000	2.360355
1056.000000	2.357357
1057.000000	2.345787
1058.000000	2.341386
1059.000000	2.339121
1060.000000	2.328340
1061.000000	2.325963
1062.000000	2.320116
1063.000000	2.308655
1064.000000	2.303431
1065.000000	2.298656
1066.000000	2.299870
1067.000000	2.302601
1068.000000	2.297081
1069.000000	2.298784
1070.000000	2.294797
1071.000000	2.289224
1072.000000	2.286195
1073.000000	2.293796
1074.000000	2.293834
1075.000000	2.287313
1076.000000	2.277974
1077.000000	2.269618
1078.000000	2.268868
1079.000000	2.271592
1080.000000	2.265561
1081.000000	2.260527
1082.000000	2.255459
1083.000000	2.261276
1084.000000	2.250431
1085.000000	2.242200
1086.000000	2.219134
1087.000000	2.216464
1088.000000	2.205497
1089.000000	2.202233
1090.000000	2.184576
1091.000000	2.182050
1092.000000	2.179137
1093.000000	2.170744
1094.000000	2.161194
1095.000000	2.153515
1096.000000	2.151505
1097.000000	2.145781
1098.000000	2.138429
1099.000000	2.141468
1100.000000	2.148936
1101.000000	2.143163
1102.000000	2.139449
1103.000000	2.136679
1104.000000	2.138595
1105.000000	2.146424
1106.000000	2.158034
1107.000000	2.170530
1108.000000	2.164816
1109.000000	2.166569
1110.000000	2.169688
1111.000000	2.176495
1112.000000	2.184248
1113.000000	2.198589
1114.000000	2.199825
1115.000000	2.196178
1116.000000	2.201553
1117.000000	2.228365
1118.000000	2.241454
1119.000000	2.256725
1120.000000	2.280678
1121.000000	2.313754
1122.000000	2.348053
1123.000000	2.397205
1124.000000	2.437947
1125.000000	2.474642
1126.000000	2.502581
1127.000000	2.559631
1128.000000	2.612054
1129.000000	2.696930
1130.000000	2.804310
1131.000000	2.904817
1132.000000	3.066227
1133.000000	3.196698
1134.000000	3.359658
1135.000000	3.546473
1136.000000	3.771758
1137.000000	3.976802
1138.000000	4.166782
1139.000000	4.374642
1140.000000	4.572552
1141.000000	4.793268
1142.000000	4.992029
1143.000000	5.183190
1144.000000	5.357521
1145.000000	5.530790
1146.000000	5.655791
1147.000000	5.732656
1148.000000	5.732653
1149.000000	5.691742
1150.000000	5.657926
1151.000000	5.624203
1152.000000	5.579116
1153.000000	5.556610
1154.000000	5.569913
1155.000000	5.601405
1156.000000	5.690445
1157.000000	5.793889
1158.000000	5.918428
1159.000000	6.094791
1160.000000	6.254175
1161.000000	6.419525
1162.000000	6.614091
1163.000000	6.778808
1164.000000	6.974510
1165.000000	7.150161
1166.000000	7.336797
1167.000000	7.514608
1168.000000	7.675401
1169.000000	7.859804
1170.000000	8.030237
1171.000000	8.203623
1172.000000	8.387205
1173.000000	8.557619
1174.000000	8.730152
1175.000000	8.873770
1176.000000	9.026526
1177.000000	9.200125
1178.000000	9.385952
1179.000000	9.613895
1180.000000	9.871033
1181.000000	10.141007
1182.000000	10.442555
1183.000000	10.699915
1184.000000	10.912347
1185.000000	11.053860
1186.000000	11.129664
1187.000000	11.128525
1188.000000	11.048686
1189.000000	10.917472
1190.000000	10.720944
1191.000000	10.494516
1192.000000	10.242474
1193.000000	10.017225
1194.000000	9.810853
1195.000000	9.648358
1196.000000	9.535817
1197.000000	9.467929
1198.000000	9.411517
1199.000000	9.393369
1200.000000	9.380147
1201.000000	9.383807
1202.000000	9.412653
1203.000000	9.444443
1204.000000	9.474292
1205.000000	9.492903
1206.000000	9.515424
1207.000000	9.545631
1208.000000	9.548082
1209.000000	9.541708
1210.000000	9.541911
1211.000000	9.500781
1212.000000	9.465640
1213.000000	9.436580
1214.000000	9.401656
1215.000000	9.351827
1216.000000	9.295035
1217.000000	9.230576
1218.000000	9.185965
1219.000000	9.127323
1220.000000	9.051651
1221.000000	8.957990
1222.000000	8.864481
1223.000000	8.784541
1224.000000	8.682281
1225.000000	8.592450
1226.000000	8.496304
1227.000000	8.391110
1228.000000	8.291732
1229.000000	8.194017
1230.000000	8.101252
1231.000000	7.984604
1232.000000	7.881654
1233.000000	7.783615
1234.000000	7.684340
1235.000000	7.586314
1236.000000	7.492279
1237.000000	7.405244
1238.000000	7.309305
1239.000000	7.219454
1240.000000	7.131841
1241.000000	7.049946
1242.000000	6.975080
1243.000000	6.905993
1244.000000	6.846457
1245.000000	6.767885
1246.000000	6.710621
1247.000000	6.657078
1248.000000	6.619342
1249.000000	6.579093
1250.000000	6.536372
1251.000000	6.497794
1252.000000	6.466315
1253.000000	6.435620
1254.000000	6.399140
1255.000000	6.373189
1256.000000	6.336583
1257.000000	6.300796
1258.000000	6.272102
1259.000000	6.230618
1260.000000	6.192970
1261.000000	6.168865
1262.000000	6.137357
1263.000000	6.103910
1264.000000	6.066559
1265.000000	6.037768
1266.000000	6.002857
1267.000000	5.971065
1268.000000	5.939930
1269.000000	5.900963
1270.000000	5.864890
1271.000000	5.833589
1272.000000	5.793298
1273.000000	5.755680
1274.000000	5.723052
1275.000000	5.694273
1276.000000	5.653421
1277.000000	5.606652
1278.000000	5.583009
1279.000000	5.554091
1280.000000	5.509276
1281.000000	5.469925
1282.000000	5.436233
1283.000000	5.396854
1284.000000	5.362898
1285.000000	5.332289
1286.000000	5.302318
1287.000000	5.270252
1288.000000	5.236578
1289.000000	5.209412
1290.000000	5.186215
1291.000000	5.172707
1292.000000	5.158857
1293.000000	5.144416
1294.000000	5.136149
1295.000000	5.122402
1296.000000	5.108074
1297.000000	5.106603
1298.000000	5.099849
1299.000000	5.086582
1300.000000	5.068479
1301.000000	5.061320
1302.000000	5.055914
1303.000000	5.044859
1304.000000	5.045649
1305.000000	5.049029
1306.000000	5.047231
1307.000000	5.050603
1308.000000	5.069163
1309.000000	5.077439
1310.000000	5.080777
1311.000000	5.093089
1312.000000	5.111183
1313.000000	5.134942
1314.000000	5.158637
1315.000000	5.174163
1316.000000	5.198625
1317.000000	5.228107
1318.000000	5.254976
1319.000000	5.284420
1320.000000	5.320152
1321.000000	5.357639
1322.000000	5.390270
1323.000000	5.425839
1324.000000	5.472208
1325.000000	5.520337
1326.000000	5.568464
1327.000000	5.614121
1328.000000	5.667782
1329.000000	5.729950
1330.000000	5.789760
1331.000000	5.856479
1332.000000	5.920621
1333.000000	5.982846
1334.000000	6.057341
1335.000000	6.136310
1336.000000	6.222154
1337.000000	6.308963
1338.000000	6.393631
1339.000000	6.481684
1340.000000	6.597989
1341.000000	6.708851
1342.000000	6.826176
1343.000000	6.938747
1344.000000	7.056586
1345.000000	7.197451
1346.000000	7.336131
1347.000000	7.481730
1348.000000	7.661217
1349.000000	7.832227
1350.000000	8.020314
1351.000000	8.252652
1352.000000	8.529977
1353.000000	8.810599
1354.000000	9.101871
1355.000000	9.412818
1356.000000	9.632996
1357.000000	9.760111
1358.000000	9.854438
1359.000000	9.888920
1360.000000	9.853003
1361.000000	9.899617
1362.000000	9.950805
1363.000000	10.007792
1364.000000	10.031015
1365.000000	10.089279
1366.000000	10.153521
1367.000000	10.227404
1368.000000	10.326128
1369.000000	10.447952
1370.000000	10.551107
1371.000000	10.686569
1372.000000	10.844325
1373.000000	10.976181
1374.000000	11.105103
1375.000000	11.209303
1376.000000	11.284266
1377.000000	11.302146
1378.000000	11.295135
1379.000000	11.276463
1380.000000	11.257404
1381.000000	11.258159
1382.000000	11.284182
1383.000000	11.332407
1384.000000	11.367612
1385.000000	11.479163
1386.000000	11.484146
1387.000000	11.503074
1388.000000	11.500357
1389.000000	11.475800
1390.000000	11.421023
1391.000000	11.386634
1392.000000	11.351051
1393.000000	11.288345
1394.000000	11.212764
1395.000000	11.175761
1396.000000	11.136836
1397.000000	11.052010
1398.000000	10.999824
1399.000000	11.013200
1400.000000	11.050234
1401.000000	11.064766
1402.000000	11.087735
1403.000000	11.119600
1404.000000	11.187076
1405.000000	11.200849
1406.000000	11.227615
1407.000000	11.219799
1408.000000	11.241736
1409.000000	11.222885
1410.000000	11.192199
1411.000000	11.105933
1412.000000	11.018428
1413.000000	10.949486
1414.000000	10.880701
1415.000000	10.790582
1416.000000	10.695416
1417.000000	10.647846
1418.000000	10.614678
1419.000000	10.561743
1420.000000	10.526181
1421.000000	10.470431
1422.000000	10.432321
1423.000000	10.413435
1424.000000	10.403295
1425.000000	10.389532
1426.000000	10.348214
1427.000000	10.342546
1428.000000	10.338380
1429.000000	10.326949
1430.000000	10.300071
1431.000000	10.286994
1432.000000	10.261816
1433.000000	10.236735
1434.000000	10.212981
1435.000000	10.198695
1436.000000	10.169106
1437.000000	10.171021
1438.000000	10.172792
1439.000000	10.164029
1440.000000	10.152252
1441.000000	10.146944
1442.000000	10.181904
1443.000000	10.173307
1444.000000	10.183312
1445.000000	10.205576
1446.000000	10.214172
1447.000000	10.207838
1448.000000	10.216787
1449.000000	10.235815
1450.000000	10.252933
1451.000000	10.271881
1452.000000	10.268444
1453.000000	10.267697
1454.000000	10.264576
1455.000000	10.267946
1456.000000	10.283266
1457.000000	10.271942
1458.000000	10.272821
1459.000000	10.274429
1460.000000	10.270614
1461.000000	10.266592
1462.000000	10.267480
1463.000000	10.257638
1464.000000	10.254139
1465.000000	10.246326
1466.000000	10.232140
1467.000000	10.217698
1468.000000	10.207797
1469.000000	10.190695
1470.000000	10.192456
1471.000000	10.166387
1472.000000	10.155936
1473.000000	10.129004
1474.000000	10.116299
1475.000000	10.108503
1476.000000	10.114144
1477.000000	10.100569
1478.000000	10.101290
1479.000000	10.096699
1480.000000	10.102389
1481.000000	10.116042
1482.000000	10.121801
1483.000000	10.130619
1484.000000	10.134052
1485.000000	10.147436
1486.000000	10.139439
1487.000000	10.154399
1488.000000	10.158862
1489.000000	10.159320
1490.000000	10.172458
1491.000000	10.174408
1492.000000	10.172821
1493.000000	10.183888
1494.000000	10.191088
1495.000000	10.202843
1496.000000	10.215427
1497.000000	10.228920
1498.000000	10.243974
1499.000000	10.251096
1500.000000	10.275035
1501.000000	10.289978
1502.000000	10.312608
1503.000000	10.336459
1504.000000	10.365241
1505.000000	10.393292
1506.000000	10.422450
1507.000000	10.447993
1508.000000	10.473276
1509.000000	10.502420
1510.000000	10.530590
1511.000000	10.564710
1512.000000	10.577184
1513.000000	10.600169
1514.000000	10.633980
1515.000000	10.667381
1516.000000	10.692179
1517.000000	10.708903
1518.000000	10.732755
1519.000000	10.762324
1520.000000	10.783294
1521.000000	10.810128
1522.000000	10.834891
1523.000000	10.852218
1524.000000	10.869044
1525.000000	10.901296
1526.000000	10.921955
1527.000000	10.939843
1528.000000	10.961095
1529.000000	10.988539
1530.000000	10.999071
1531.000000	11.020652
1532.000000	11.039819
1533.000000	11.057463
1534.000000	11.083464
1535.000000	11.101008
1536.000000	11.117330
1537.000000	11.131339
1538.000000	11.144774
1539.000000	11.158068
1540.000000	11.182323
1541.000000	11.194264
1542.000000	11.208608
1543.000000	11.238968
1544.000000	11.270390
1545.000000	11.288641
1546.000000	11.318531
1547.000000	11.362350
1548.000000	11.401683
1549.000000	11.444899
1550.000000	11.490128
1551.000000	11.536286
1552.000000	11.582823
1553.000000	11.620871
1554.000000	11.663978
1555.000000	11.706133
1556.000000	11.741508
1557.000000	11.771133
1558.000000	11.808580
1559.000000	11.832779
1560.000000	11.855458
1561.000000	11.875292
1562.000000	11.891492
1563.000000	11.904041
1564.000000	11.910635
1565.000000	11.926724
1566.000000	11.938579
1567.000000	11.944918
1568.000000	11.949279
1569.000000	11.948165
1570.000000	11.946360
1571.000000	11.950948
1572.000000	11.960672
1573.000000	11.967617
1574.000000	11.975779
1575.000000	11.985632
1576.000000	11.999186
1577.000000	12.010861
1578.000000	12.022943
1579.000000	12.035758
1580.000000	12.053136
1581.000000	12.068746
1582.000000	12.084240
1583.000000	12.108604
1584.000000	12.127926
1585.000000	12.144510
1586.000000	12.156874
1587.000000	12.172955
1588.000000	12.191056
1589.000000	12.209032
1590.000000	12.223921
1591.000000	12.237793
1592.000000	12.253551
1593.000000	12.267878
1594.000000	12.287504
1595.000000	12.298110
1596.000000	12.304295
1597.000000	12.316092
1598.000000	12.327190
1599.000000	12.346898
1600.000000	12.359814
1601.000000	12.369453
1602.000000	12.383780
1603.000000	12.403596
1604.000000	12.408883
1605.000000	12.406408
1606.000000	12.410979
1607.000000	12.432411
1608.000000	12.440819
1609.000000	12.446617
1610.000000	12.436705
1611.000000	12.433233
1612.000000	12.436589
1613.000000	12.425745
1614.000000	12.417168
1615.000000	12.405551
1616.000000	12.393355
1617.000000	12.379310
1618.000000	12.353823
1619.000000	12.342200
1620.000000	12.323667
1621.000000	12.297556
1622.000000	12.269477
1623.000000	12.252763
1624.000000	12.242143
1625.000000	12.226115
1626.000000	12.206789
1627.000000	12.182590
1628.000000	12.167654
1629.000000	12.158136
1630.000000	12.143890
1631.000000	12.121005
1632.000000	12.108115
1633.000000	12.087188
1634.000000	12.066980
1635.000000	12.050719
1636.000000	12.038293
1637.000000	12.024519
1638.000000	11.995587
1639.000000	11.957195
1640.000000	11.928563
1641.000000	11.904255
1642.000000	11.874161
1643.000000	11.857750
1644.000000	11.838217
1645.000000	11.806908
1646.000000	11.785605
1647.000000	11.764205
1648.000000	11.757189
1649.000000	11.731409
1650.000000	11.711856
1651.000000	11.696971
1652.000000	11.683025
1653.000000	11.666350
1654.000000	11.643670
1655.000000	11.630203
1656.000000	11.620106
1657.000000	11.593877
1658.000000	11.564352
1659.000000	11.530717
1660.000000	11.506304
1661.000000	11.478747
1662.000000	11.439161
1663.000000	11.405712
1664.000000	11.368122
1665.000000	11.332213
1666.000000	11.308988
1667.000000	11.284577
1668.000000	11.249682
1669.000000	11.234804
1670.000000	11.204907
1671.000000	11.218304
1672.000000	11.207456
1673.000000	11.225293
1674.000000	11.275220
1675.000000	11.328799
1676.000000	11.425069
1677.000000	11.550949
1678.000000	11.673859
1679.000000	11.840044
1680.000000	11.953131
1681.000000	12.087841
1682.000000	12.179671
1683.000000	12.198599
1684.000000	12.153065
1685.000000	12.040366
1686.000000	11.934968
1687.000000	11.824950
1688.000000	11.784862
1689.000000	11.763546
1690.000000	11.837722
1691.000000	11.922804
1692.000000	12.028620
1693.000000	12.152785
1694.000000	12.230618
1695.000000	12.292043
1696.000000	12.301803
1697.000000	12.287828
1698.000000	12.249659
1699.000000	12.210011
1700.000000	12.159458
1701.000000	12.099876
1702.000000	12.070100
1703.000000	12.043876
1704.000000	12.032636
1705.000000	12.003771
1706.000000	11.976386
1707.000000	11.943725
1708.000000	11.919849
1709.000000	11.883974
1710.000000	11.841562
1711.000000	11.795153
1712.000000	11.739583
1713.000000	11.701683
1714.000000	11.630764
1715.000000	11.551669
1716.000000	11.464587
1717.000000	11.381717
1718.000000	11.289459
1719.000000	11.182711
1720.000000	11.087859
1721.000000	11.002126
1722.000000	10.927916
1723.000000	10.897135
1724.000000	10.871036
1725.000000	10.895737
1726.000000	10.944218
1727.000000	10.996334
1728.000000	11.071823
1729.000000	11.143799
1730.000000	11.228587
1731.000000	11.312525
1732.000000	11.377281
1733.000000	11.425618
1734.000000	11.468472
1735.000000	11.483664
1736.000000	11.480038
1737.000000	11.468013
1738.000000	11.411089
1739.000000	11.368053
1740.000000	11.312128
1741.000000	11.262404
1742.000000	11.203163
1743.000000	11.158030
1744.000000	11.106037
1745.000000	11.071672
1746.000000	11.069428
1747.000000	11.057232
1748.000000	11.047742
1749.000000	11.031714
1750.000000	11.020766
1751.000000	11.012332
1752.000000	10.998119
1753.000000	10.999190
1754.000000	11.006043
1755.000000	11.010331
1756.000000	11.021194
1757.000000	11.055635
1758.000000	11.083886
1759.000000	11.118865
1760.000000	11.160838
1761.000000	11.186769
1762.000000	11.205393
1763.000000	11.223158
1764.000000	11.240654
1765.000000	11.232947
1766.000000	11.207163
1767.000000	11.187930
1768.000000	11.158355
1769.000000	11.134449
1770.000000	11.100148
1771.000000	11.069596
1772.000000	11.041956
1773.000000	10.998766
1774.000000	10.962028
1775.000000	10.931678
1776.000000	10.902846
1777.000000	10.867064
1778.000000	10.831320
1779.000000	10.812068
1780.000000	10.790382
1781.000000	10.767366
1782.000000	10.734807
1783.000000	10.715539
1784.000000	10.683738
1785.000000	10.640859
1786.000000	10.615841
1787.000000	10.572247
1788.000000	10.534005
1789.000000	10.502672
1790.000000	10.485109
1791.000000	10.462445
1792.000000	10.450308
1793.000000	10.420852
1794.000000	10.399034
1795.000000	10.396167
1796.000000	10.388350
1797.000000	10.371661
1798.000000	10.364622
1799.000000	10.368390
1800.000000	10.357492
1801.000000	10.355898
1802.000000	10.336313
1803.000000	10.318071
1804.000000	10.305777
1805.000000	10.308994
1806.000000	10.305535
1807.000000	10.290428
1808.000000	10.275119
1809.000000	10.270350
1810.000000	10.289632
1811.000000	10.298506
1812.000000	10.293382
1813.000000	10.287096
1814.000000	10.302122
1815.000000	10.307263
1816.000000	10.308177
1817.000000	10.319209
1818.000000	10.337819
1819.000000	10.355787
1820.000000	10.363796
1821.000000	10.338247
1822.000000	10.285222
1823.000000	10.248474
1824.000000	10.240478
1825.000000	10.252890
1826.000000	10.250147
1827.000000	10.229095
1828.000000	10.199163
1829.000000	10.171918
1830.000000	10.149246
1831.000000	10.118226
1832.000000	10.078748
1833.000000	10.073015
1834.000000	10.091517
1835.000000	10.109777
1836.000000	10.110942
1837.000000	10.084773
1838.000000	10.064525
1839.000000	10.060816
1840.000000	10.066166
1841.000000	10.046926
1842.000000	10.024779
1843.000000	9.973258
1844.000000	9.949883
1845.000000	9.994391
1846.000000	10.036671
1847.000000	10.037818
1848.000000	9.954943
1849.000000	9.850442
1850.000000	9.763409
1851.000000	9.739121
1852.000000	9.742478
1853.000000	9.703977
1854.000000	9.647383
1855.000000	9.592899
1856.000000	9.533691
1857.000000	9.491959
1858.000000	9.467408
1859.000000	9.420398
1860.000000	9.344595
1861.000000	9.279140
1862.000000	9.225290
1863.000000	9.183917
1864.000000	9.165982
1865.000000	9.167286
1866.000000	9.173437
1867.000000	9.182530
1868.000000	9.192723
1869.000000	9.224395
1870.000000	9.189804
1871.000000	9.134571
1872.000000	9.099072
1873.000000	9.069633
1874.000000	9.031386
1875.000000	9.011768
1876.000000	9.015941
1877.000000	9.029059
1878.000000	9.053965
1879.000000	9.084896
1880.000000	9.107104
1881.000000	9.159907
1882.000000	9.192825
1883.000000	9.199245
1884.000000	9.165699
1885.000000	9.088838
1886.000000	8.988385
1887.000000	8.878994
1888.000000	8.772584
1889.000000	8.640773
1890.000000	8.500684
1891.000000	8.348644
1892.000000	8.147551
1893.000000	7.935252
1894.000000	7.750504
1895.000000	7.602292
1896.000000	7.484383
1897.000000	7.395775
1898.000000	7.291514
1899.000000	7.109805
1900.000000	6.926370
1901.000000	6.744360
1902.000000	6.593943
1903.000000	6.481608
1904.000000	6.376338
1905.000000	6.250885
1906.000000	6.069485
1907.000000	5.905001
1908.000000	5.789828
1909.000000	5.706479
1910.000000	5.680958
1911.000000	5.654534
1912.000000	5.583455
1913.000000	5.500387
1914.000000	5.375123
1915.000000	5.269472
1916.000000	5.201898
1917.000000	5.188702
1918.000000	5.177825
1919.000000	5.141919
1920.000000	5.089483
1921.000000	5.037276
1922.000000	4.957118
1923.000000	4.902348
1924.000000	4.870410
1925.000000	4.871096
1926.000000	4.853573
1927.000000	4.818445
1928.000000	4.797982
1929.000000	4.782377
1930.000000	4.749139
1931.000000	4.731589
1932.000000	4.710749
1933.000000	4.730166
1934.000000	4.713613
1935.000000	4.724986
1936.000000	4.733010
1937.000000	4.733842
1938.000000	4.732104
1939.000000	4.722961
1940.000000	4.725320
1941.000000	4.715415
1942.000000	4.723470
1943.000000	4.737880
1944.000000	4.750407
1945.000000	4.777848
1946.000000	4.772110
1947.000000	4.797013
1948.000000	4.823760
1949.000000	4.825644
1950.000000	4.860655
1951.000000	4.867669
1952.000000	4.881284
1953.000000	4.912949
1954.000000	4.927048
1955.000000	4.951989
1956.000000	4.970301
1957.000000	5.000140
1958.000000	5.007925
1959.000000	5.038915
1960.000000	5.075814
1961.000000	5.078729
1962.000000	5.115630
1963.000000	5.131871
1964.000000	5.155878
1965.000000	5.169237
1966.000000	5.181652
1967.000000	5.217859
1968.000000	5.224582
1969.000000	5.245412
1970.000000	5.272782
1971.000000	5.295810
1972.000000	5.310827
1973.000000	5.342883
1974.000000	5.366903
1975.000000	5.382113
1976.000000	5.411601
1977.000000	5.428102
1978.000000	5.455269
1979.000000	5.480450
1980.000000	5.490463
1981.000000	5.539108
1982.000000	5.570010
1983.000000	5.572311
1984.000000	5.612688
1985.000000	5.636463
1986.000000	5.657512
1987.000000	5.701081
1988.000000	5.724767
1989.000000	5.758905
1990.000000	5.792574
1991.000000	5.828273
1992.000000	5.855953
1993.000000	5.868356
1994.000000	5.908930
1995.000000	5.939921
1996.000000	5.978486
1997.000000	6.009417
1998.000000	6.040110
1999.000000	6.072275
2000.000000	6.084953
2001.000000	6.124303
2002.000000	6.160160
2003.000000	6.178478
2004.000000	6.210637
2005.000000	6.220661
2006.000000	6.247402
2007.000000	6.272956
2008.000000	6.284490
2009.000000	6.310376
2010.000000	6.330360
2011.000000	6.361635
2012.000000	6.375008
2013.000000	6.382381
2014.000000	6.386937
2015.000000	6.400585
2016.000000	6.411574
2017.000000	6.437858
2018.000000	6.443324
2019.000000	6.456986
2020.000000	6.464559
2021.000000	6.467853
2022.000000	6.484926
2023.000000	6.476181
2024.000000	6.473895
2025.000000	6.466187
2026.000000	6.472160
2027.000000	6.459732
2028.000000	6.449516
2029.000000	6.446304
2030.000000	6.433753
2031.000000	6.413925
2032.000000	6.389725
2033.000000	6.375339
2034.000000	6.379317
2035.000000	6.342910
2036.000000	6.313611
2037.000000	6.288817
2038.000000	6.254863
2039.000000	6.231769
2040.000000	6.201880
2041.000000	6.161687
2042.000000	6.108907
2043.000000	6.082693
2044.000000	6.041212
2045.000000	5.996143
2046.000000	5.955655
2047.000000	5.922087
2048.000000	5.888506
2049.000000	5.860948
2050.000000	5.834658
2051.000000	5.814655
2052.000000	5.797996
2053.000000	5.785550
2054.000000	5.794226
2055.000000	5.800830
2056.000000	5.824196
2057.000000	5.849638
2058.000000	5.881025
2059.000000	5.913981
2060.000000	5.958531
2061.000000	6.005457
2062.000000	6.064202
2063.000000	6.120089
2064.000000	6.177582
2065.000000	6.232896
2066.000000	6.284535
2067.000000	6.352436
2068.000000	6.403341
2069.000000	6.464670
2070.000000	6.521042
2071.000000	6.574099
2072.000000	6.631972
2073.000000	6.680874
2074.000000	6.733676
2075.000000	6.776319
2076.000000	6.810115
2077.000000	6.847696
2078.000000	6.881372
2079.000000	6.909240
2080.000000	6.931750
2081.000000	6.958971
2082.000000	6.972704
2083.000000	6.989259
2084.000000	7.008375
2085.000000	7.017306
2086.000000	7.011285
2087.000000	7.007337
2088.000000	7.004745
2089.000000	6.999676
2090.000000	6.994022
2091.000000	6.990211
2092.000000	6.981960
2093.000000	6.966678
2094.000000	6.957741
2095.000000	6.949609
2096.000000	6.938098
2097.000000	6.927380
2098.000000	6.917142
2099.000000	6.904911
2100.000000	6.896951
2101.000000	6.896621
2102.000000	6.901545
2103.000000	6.902924
2104.000000	6.890812
2105.000000	6.888690
2106.000000	6.892227
2107.000000	6.880504
2108.000000	6.881983
2109.000000	6.885915
2110.000000	6.875335
2111.000000	6.872250
2112.000000	6.860176
2113.000000	6.847175
2114.000000	6.850200
2115.000000	6.833050
2116.000000	6.810953
2117.000000	6.799259
2118.000000	6.786099
2119.000000	6.768375
2120.000000	6.745916
2121.000000	6.732161
2122.000000	6.713351
2123.000000	6.693348
2124.000000	6.666699
2125.000000	6.638425
2126.000000	6.614916
2127.000000	6.589364
2128.000000	6.560783
2129.000000	6.528213
2130.000000	6.497307
2131.000000	6.464030
2132.000000	6.429646
2133.000000	6.384538
2134.000000	6.333005
2135.000000	6.291143
2136.000000	6.263668
2137.000000	6.221875
2138.000000	6.183325
2139.000000	6.128462
2140.000000	6.087311
2141.000000	6.042655
2142.000000	5.998028
2143.000000	5.949732
2144.000000	5.892025
2145.000000	5.851463
2146.000000	5.798192
2147.000000	5.751729
2148.000000	5.708954
2149.000000	5.651020
2150.000000	5.608050
2151.000000	5.569414
2152.000000	5.535457
2153.000000	5.478382
2154.000000	5.424526
2155.000000	5.390050
2156.000000	5.353172
2157.000000	5.313850
2158.000000	5.265099
2159.000000	5.240411
2160.000000	5.200015
2161.000000	5.174120
2162.000000	5.133443
2163.000000	5.110732
2164.000000	5.100143
2165.000000	5.075770
2166.000000	5.055072
2167.000000	5.059346
2168.000000	5.044508
2169.000000	5.028567
2170.000000	5.030400
2171.000000	5.017866
2172.000000	5.010256
2173.000000	5.006059
2174.000000	5.003348
2175.000000	4.995749
2176.000000	4.996647
2177.000000	5.012607
2178.000000	5.016072
2179.000000	5.018069
2180.000000	5.017240
2181.000000	5.029843
2182.000000	5.022255
2183.000000	5.041383
2184.000000	5.038979
2185.000000	5.048899
2186.000000	5.054715
2187.000000	5.045129
2188.000000	5.055206
2189.000000	5.071878
2190.000000	5.078217
2191.000000	5.092714
2192.000000	5.093556
2193.000000	5.104117
2194.000000	5.097336
2195.000000	5.121690
2196.000000	5.131353
2197.000000	5.132844
2198.000000	5.147112
2199.000000	5.177735
2200.000000	5.187517
2201.000000	5.203274
2202.000000	5.219430
2203.000000	5.231034
2204.000000	5.264884
2205.000000	5.272590
2206.000000	5.304867
2207.000000	5.318540
2208.000000	5.340367
2209.000000	5.365331
2210.000000	5.401314
2211.000000	5.427292
2212.000000	5.467415
2213.000000	5.493905
2214.000000	5.531249
2215.000000	5.584905
2216.000000	5.607157
2217.000000	5.654958
2218.000000	5.696715
2219.000000	5.747452
2220.000000	5.810496
2221.000000	5.850373
2222.000000	5.891676
2223.000000	5.939022
2224.000000	5.977212
2225.000000	6.027347
2226.000000	6.076723
2227.000000	6.110088
2228.000000	6.151000
2229.000000	6.197517
2230.000000	6.231680
2231.000000	6.259846
2232.000000	6.301833
2233.000000	6.333854
2234.000000	6.339313
2235.000000	6.389629
2236.000000	6.402207
2237.000000	6.433870
2238.000000	6.448297
2239.000000	6.453506
2240.000000	6.458331
2241.000000	6.473424
2242.000000	6.465175
2243.000000	6.462414
2244.000000	6.453519
2245.000000	6.439833
2246.000000	6.422966
2247.000000	6.396470
2248.000000	6.372667
2249.000000	6.351279
2250.000000	6.342829
2251.000000	6.315778
2252.000000	6.281853
2253.000000	6.216907
2254.000000	6.211483
2255.000000	6.183864
2256.000000	6.140907
2257.000000	6.107909
2258.000000	6.075204
2259.000000	6.045590
2260.000000	6.011967
2261.000000	5.974580
2262.000000	5.920303
2263.000000	5.891405
2264.000000	5.863661
2265.000000	5.833175
2266.000000	5.788323
2267.000000	5.761973
2268.000000	5.725703
2269.000000	5.696429
2270.000000	5.678042
2271.000000	5.670754
2272.000000	5.663132
2273.000000	5.642775
2274.000000	5.635271
2275.000000	5.627866
2276.000000	5.600101
2277.000000	5.603776
2278.000000	5.592686
2279.000000	5.574324
2280.000000	5.559728
2281.000000	5.558889
2282.000000	5.546833
2283.000000	5.516423
2284.000000	5.502301
2285.000000	5.479502
2286.000000	5.475324
2287.000000	5.446617
2288.000000	5.447912
2289.000000	5.433388
2290.000000	5.421414
2291.000000	5.408143
2292.000000	5.413475
2293.000000	5.407699
2294.000000	5.394876
2295.000000	5.393819
2296.000000	5.400553
2297.000000	5.391368
2298.000000	5.401504
2299.000000	5.401190
2300.000000	5.403284
2301.000000	5.407176
2302.000000	5.427569
2303.000000	5.439251
2304.000000	5.448488
2305.000000	5.435171
2306.000000	5.437565
2307.000000	5.441044
2308.000000	5.437391
2309.000000	5.449451
2310.000000	5.460749
2311.000000	5.462345
2312.000000	5.491114
2313.000000	5.503905
2314.000000	5.499458
2315.000000	5.516996
2316.000000	5.518139
2317.000000	5.527242
2318.000000	5.538417
2319.000000	5.550789
2320.000000	5.553436
2321.000000	5.542211
2322.000000	5.541854
2323.000000	5.526522
2324.000000	5.527780
2325.000000	5.510424
2326.000000	5.504734
2327.000000	5.503747
2328.000000	5.496855
2329.000000	5.467580
2330.000000	5.446591
2331.000000	5.447818
2332.000000	5.439057
2333.000000	5.429887
2334.000000	5.423303
2335.000000	5.430684
2336.000000	5.433613
2337.000000	5.432011
2338.000000	5.435509
2339.000000	5.445430
2340.000000	5.460069
2341.000000	5.473865
2342.000000	5.501931
2343.000000	5.514924
2344.000000	5.524408
2345.000000	5.545484
2346.000000	5.564411
2347.000000	5.588484
2348.000000	5.612276
2349.000000	5.619443
2350.000000	5.626519
2351.000000	5.641086
2352.000000	5.655306
2353.000000	5.668362
2354.000000	5.669085
2355.000000	5.657720
2356.000000	5.657008
2357.000000	5.659580
2358.000000	5.655704
2359.000000	5.651654
2360.000000	5.651203
2361.000000	5.640952
2362.000000	5.633617
2363.000000	5.626886
2364.000000	5.622524
2365.000000	5.618143
2366.000000	5.618462
2367.000000	5.620824
2368.000000	5.619385
2369.000000	5.614358
2370.000000	5.609077
2371.000000	5.617419
2372.000000	5.634599
2373.000000	5.642734
2374.000000	5.641181
2375.000000	5.647058
2376.000000	5.665584
2377.000000	5.680318
2378.000000	5.684983
2379.000000	5.698106
2380.000000	5.712412
2381.000000	5.719149
2382.000000	5.725321
2383.000000	5.728938
2384.000000	5.739866
2385.000000	5.748936
2386.000000	5.759809
2387.000000	5.773535
2388.000000	5.773787
2389.000000	5.779073
2390.000000	5.789350
2391.000000	5.795771
2392.000000	5.792722
2393.000000	5.798262
2394.000000	5.810069
2395.000000	5.817848
2396.000000	5.823325
2397.000000	5.825971
2398.000000	5.819303
2399.000000	5.831796
2400.000000	5.835087
2401.000000	5.818701
2402.000000	5.814465
2403.000000	5.815214
2404.000000	5.820172
2405.000000	5.816077
2406.000000	5.796174
2407.000000	5.784252
2408.000000	5.779581
2409.000000	5.780725
2410.000000	5.774314
2411.000000	5.757005
2412.000000	5.734969
2413.000000	5.731198
2414.000000	5.729767
2415.000000	5.704158
2416.000000	5.683708
2417.000000	5.660469
2418.000000	5.634038
2419.000000	5.603404
2420.000000	5.576762
2421.000000	5.564203
2422.000000	5.559704
2423.000000	5.537871
2424.000000	5.537155
2425.000000	5.538507
2426.000000	5.493100
2427.000000	5.453875
2428.000000	5.414750
2429.000000	5.378729
2430.000000	5.342497
2431.000000	5.304058
2432.000000	5.267015
2433.000000	5.229713
2434.000000	5.199654
2435.000000	5.158719
2436.000000	5.109533
2437.000000	5.064161
2438.000000	5.035039
2439.000000	5.004522
2440.000000	4.950886
2441.000000	4.909548
2442.000000	4.887794
2443.000000	4.826885
2444.000000	4.787129
2445.000000	4.753147
2446.000000	4.704772
2447.000000	4.664274
2448.000000	4.624300
2449.000000	4.588124
2450.000000	4.545228
2451.000000	4.511954
2452.000000	4.472560
2453.000000	4.441561
2454.000000	4.411404
2455.000000	4.379715
2456.000000	4.327814
2457.000000	4.307997
2458.000000	4.274017
2459.000000	4.230290
2460.000000	4.206524
2461.000000	4.175700
2462.000000	4.131382
2463.000000	4.132500
2464.000000	4.114137
2465.000000	4.070404
2466.000000	4.046625
2467.000000	4.028961
2468.000000	4.019603
2469.000000	3.988233
2470.000000	3.996094
2471.000000	3.974073
2472.000000	3.925458
2473.000000	3.934272
2474.000000	3.909416
2475.000000	3.878277
2476.000000	3.894077
2477.000000	3.878121
2478.000000	3.887129
2479.000000	3.843358
2480.000000	3.827489
2481.000000	3.822686
2482.000000	3.824433
2483.000000	3.813063
2484.000000	3.767038
2485.000000	3.812806
2486.000000	3.810665
2487.000000	3.846341
2488.000000	3.817966
2489.000000	3.780621
2490.000000	3.822111
2491.000000	3.795220
2492.000000	3.783331
2493.000000	3.779051
2494.000000	3.790208
2495.000000	3.813573
2496.000000	3.814048
2497.000000	3.830457
2498.000000	3.821386
2499.000000	3.799450
2500.000000	3.812427
