PE UV       SUBTECH     SPECTRUM    ASCII       PEDS        4.00        
   -1
CICIMAUCR0001-5.Sample.ASC
24/04/23
10:47:46.00
24/04/23
10:47:46.00
Vinicio Soto Monge
C. kalinini
250,000000
1
Lambda 1050
1050L1511233
PerkinElmer UV WinLab 6.3.2.0749 / 2.02.05 Lambda 900 UV/VIS/NIR, Aug  7 2015 09:38:08

0
0
3350/servo 860,8/2
0
0
UV/VIS
1
1
1
DoubleDePol,CommonBeamDepol,RBeamAtt,SBeamAtt,60mm sphere, WB InGaAs Detector
0
0
0
0
Program
Program
3350/servo 860,8/2
3350/0,2 860,8/0,2
3350/0,2 860,8/0,2
0
15.00
 
 
 
0
 
860,8
319,2
860,8
Front
100
on
S:100 R:100
0
0
0
0
 
0
 
 
 
0
 
 
0
0
0
0
0
 
 
 
 
0
0


0
0
#HDR
-1
-1
#GR
nm
%R
1.0
0.0
2500,000000
-1,000000
2251
8
101,472100
5,465400
#DATA
250.000000	0.937285
251.000000	0.939556
252.000000	0.930113
253.000000	0.921480
254.000000	0.917027
255.000000	0.933608
256.000000	0.911036
257.000000	0.909355
258.000000	0.913598
259.000000	0.920491
260.000000	0.931258
261.000000	0.918914
262.000000	0.888082
263.000000	0.894763
264.000000	0.881388
265.000000	0.869249
266.000000	0.885936
267.000000	0.851351
268.000000	0.837207
269.000000	0.856264
270.000000	0.857868
271.000000	0.851433
272.000000	0.865132
273.000000	0.868346
274.000000	0.844105
275.000000	0.844276
276.000000	0.833541
277.000000	0.847973
278.000000	0.849952
279.000000	0.825896
280.000000	0.807333
281.000000	0.780495
282.000000	0.827687
283.000000	0.853104
284.000000	0.826993
285.000000	0.812527
286.000000	0.813283
287.000000	0.822905
288.000000	0.826169
289.000000	0.814700
290.000000	0.800335
291.000000	0.815654
292.000000	0.815084
293.000000	0.828032
294.000000	0.844786
295.000000	0.817521
296.000000	0.760191
297.000000	0.759087
298.000000	0.784943
299.000000	0.796659
300.000000	0.776621
301.000000	0.776397
302.000000	0.774909
303.000000	0.770716
304.000000	0.788999
305.000000	0.775280
306.000000	0.791104
307.000000	0.804573
308.000000	0.787338
309.000000	0.761380
310.000000	0.770335
311.000000	0.776002
312.000000	0.785674
313.000000	0.796322
314.000000	0.795332
315.000000	0.768368
316.000000	0.757687
317.000000	0.635521
318.000000	0.506967
319.000000	0.683864
320.000000	0.660810
321.000000	0.543164
322.000000	0.672220
323.000000	0.716733
324.000000	0.721907
325.000000	0.633404
326.000000	0.620266
327.000000	0.652944
328.000000	0.719936
329.000000	0.702333
330.000000	0.730607
331.000000	0.799562
332.000000	0.738470
333.000000	0.773202
334.000000	0.783724
335.000000	0.754913
336.000000	0.733582
337.000000	0.747734
338.000000	0.755278
339.000000	0.771357
340.000000	0.827013
341.000000	0.761504
342.000000	0.668196
343.000000	0.727274
344.000000	0.759470
345.000000	0.760267
346.000000	0.838784
347.000000	0.835648
348.000000	0.843467
349.000000	0.803405
350.000000	0.783926
351.000000	0.782392
352.000000	0.778326
353.000000	0.839499
354.000000	0.838648
355.000000	0.833968
356.000000	0.824200
357.000000	0.835100
358.000000	0.853816
359.000000	0.852712
360.000000	0.852108
361.000000	0.840910
362.000000	0.865203
363.000000	0.839030
364.000000	0.871199
365.000000	0.914818
366.000000	0.891032
367.000000	0.878503
368.000000	0.862062
369.000000	0.887443
370.000000	0.924388
371.000000	0.868535
372.000000	0.942387
373.000000	1.006394
374.000000	0.970250
375.000000	0.875198
376.000000	0.834382
377.000000	0.838207
378.000000	0.842513
379.000000	0.854633
380.000000	0.851993
381.000000	0.848843
382.000000	0.852092
383.000000	0.860295
384.000000	0.859715
385.000000	0.851362
386.000000	0.839879
387.000000	0.842309
388.000000	0.847256
389.000000	0.840125
390.000000	0.835893
391.000000	0.832839
392.000000	0.831574
393.000000	0.825112
394.000000	0.818422
395.000000	0.807468
396.000000	0.800474
397.000000	0.793827
398.000000	0.782118
399.000000	0.775239
400.000000	0.760690
401.000000	0.752202
402.000000	0.743641
403.000000	0.738021
404.000000	0.744091
405.000000	0.742103
406.000000	0.738988
407.000000	0.741602
408.000000	0.742067
409.000000	0.761529
410.000000	0.773017
411.000000	0.792738
412.000000	0.815395
413.000000	0.852302
414.000000	0.878620
415.000000	0.911169
416.000000	0.956420
417.000000	0.994816
418.000000	1.037961
419.000000	1.084205
420.000000	1.129329
421.000000	1.182182
422.000000	1.236870
423.000000	1.287433
424.000000	1.347384
425.000000	1.405631
426.000000	1.456407
427.000000	1.527977
428.000000	1.584655
429.000000	1.630325
430.000000	1.694380
431.000000	1.764196
432.000000	1.832626
433.000000	1.895368
434.000000	1.968311
435.000000	2.039478
436.000000	2.117263
437.000000	2.191914
438.000000	2.273447
439.000000	2.348151
440.000000	2.429003
441.000000	2.523954
442.000000	2.602550
443.000000	2.699059
444.000000	2.780217
445.000000	2.903038
446.000000	3.024858
447.000000	3.129946
448.000000	3.225805
449.000000	3.318737
450.000000	3.405645
451.000000	3.505511
452.000000	3.605356
453.000000	3.708511
454.000000	3.812183
455.000000	3.898688
456.000000	3.973946
457.000000	4.056995
458.000000	4.134030
459.000000	4.222006
460.000000	4.284622
461.000000	4.360130
462.000000	4.408959
463.000000	4.457432
464.000000	4.502875
465.000000	4.554044
466.000000	4.599410
467.000000	4.620894
468.000000	4.651339
469.000000	4.671140
470.000000	4.694686
471.000000	4.712296
472.000000	4.721561
473.000000	4.734235
474.000000	4.752891
475.000000	4.757080
476.000000	4.771305
477.000000	4.775404
478.000000	4.781659
479.000000	4.782784
480.000000	4.757835
481.000000	4.684458
482.000000	4.633918
483.000000	4.606635
484.000000	4.602531
485.000000	4.579710
486.000000	4.591915
487.000000	4.595187
488.000000	4.607475
489.000000	4.614845
490.000000	4.628883
491.000000	4.639210
492.000000	4.667764
493.000000	4.672473
494.000000	4.686374
495.000000	4.739645
496.000000	4.764381
497.000000	4.797650
498.000000	4.839032
499.000000	4.878066
500.000000	4.940354
501.000000	4.987695
502.000000	5.058729
503.000000	5.125950
504.000000	5.169039
505.000000	5.241965
506.000000	5.321605
507.000000	5.397800
508.000000	5.492629
509.000000	5.579565
510.000000	5.683270
511.000000	5.782271
512.000000	5.898027
513.000000	6.007963
514.000000	6.131287
515.000000	6.254260
516.000000	6.394208
517.000000	6.538749
518.000000	6.672818
519.000000	6.844050
520.000000	7.022158
521.000000	7.199298
522.000000	7.396796
523.000000	7.577352
524.000000	7.780901
525.000000	8.003000
526.000000	8.228525
527.000000	8.489121
528.000000	8.725545
529.000000	8.998043
530.000000	9.252722
531.000000	9.523194
532.000000	9.790011
533.000000	10.065837
534.000000	10.326705
535.000000	10.574706
536.000000	10.816216
537.000000	11.055123
538.000000	11.287757
539.000000	11.497095
540.000000	11.691554
541.000000	11.883770
542.000000	12.045583
543.000000	12.200429
544.000000	12.352495
545.000000	12.481175
546.000000	12.635484
547.000000	12.801076
548.000000	12.905522
549.000000	13.042613
550.000000	13.175568
551.000000	13.313950
552.000000	13.433934
553.000000	13.576104
554.000000	13.719195
555.000000	13.831954
556.000000	13.922900
557.000000	14.041816
558.000000	14.145687
559.000000	14.252377
560.000000	14.368181
561.000000	14.442069
562.000000	14.515266
563.000000	14.595661
564.000000	14.658185
565.000000	14.730546
566.000000	14.781844
567.000000	14.805173
568.000000	14.867488
569.000000	14.914059
570.000000	14.940781
571.000000	14.963770
572.000000	15.006663
573.000000	15.029535
574.000000	15.052005
575.000000	15.066318
576.000000	15.077913
577.000000	15.084437
578.000000	15.106827
579.000000	15.104614
580.000000	15.095671
581.000000	15.064127
582.000000	15.055654
583.000000	15.033402
584.000000	14.974007
585.000000	14.925509
586.000000	14.877456
587.000000	14.801970
588.000000	14.724218
589.000000	14.617166
590.000000	14.523201
591.000000	14.398285
592.000000	14.264031
593.000000	14.110921
594.000000	13.938892
595.000000	13.747041
596.000000	13.566103
597.000000	13.377967
598.000000	13.182251
599.000000	12.965555
600.000000	12.736722
601.000000	12.490261
602.000000	12.246441
603.000000	12.004912
604.000000	11.764802
605.000000	11.533256
606.000000	11.300740
607.000000	11.082145
608.000000	10.883465
609.000000	10.699912
610.000000	10.534836
611.000000	10.383445
612.000000	10.219417
613.000000	10.066779
614.000000	9.925557
615.000000	9.786885
616.000000	9.650032
617.000000	9.534802
618.000000	9.429176
619.000000	9.341734
620.000000	9.242067
621.000000	9.151407
622.000000	9.068471
623.000000	8.993751
624.000000	8.936060
625.000000	8.900272
626.000000	8.868649
627.000000	8.846792
628.000000	8.829543
629.000000	8.830612
630.000000	8.872801
631.000000	8.911757
632.000000	8.972901
633.000000	9.041159
634.000000	9.123458
635.000000	9.210359
636.000000	9.318111
637.000000	9.409262
638.000000	9.496939
639.000000	9.568592
640.000000	9.647142
641.000000	9.708087
642.000000	9.769750
643.000000	9.798228
644.000000	9.786998
645.000000	9.771479
646.000000	9.732552
647.000000	9.681562
648.000000	9.651525
649.000000	9.617456
650.000000	9.570312
651.000000	9.528077
652.000000	9.498672
653.000000	9.468763
654.000000	9.450092
655.000000	9.430355
656.000000	9.391355
657.000000	9.357233
658.000000	9.341086
659.000000	9.320714
660.000000	9.323281
661.000000	9.314555
662.000000	9.336685
663.000000	9.361801
664.000000	9.370397
665.000000	9.416866
666.000000	9.488749
667.000000	9.579595
668.000000	9.661375
669.000000	9.715740
670.000000	9.795989
671.000000	9.886024
672.000000	10.015146
673.000000	10.125673
674.000000	10.238389
675.000000	10.325515
676.000000	10.428854
677.000000	10.526247
678.000000	10.617744
679.000000	10.743818
680.000000	10.848671
681.000000	10.950949
682.000000	11.082125
683.000000	11.165206
684.000000	11.249620
685.000000	11.342913
686.000000	11.461303
687.000000	11.553384
688.000000	11.646946
689.000000	11.733912
690.000000	11.807948
691.000000	11.889038
692.000000	11.963899
693.000000	12.017108
694.000000	12.102854
695.000000	12.197130
696.000000	12.275756
697.000000	12.308070
698.000000	12.367861
699.000000	12.446530
700.000000	12.488387
701.000000	12.571904
702.000000	12.699039
703.000000	12.774832
704.000000	12.872524
705.000000	12.981771
706.000000	13.071638
707.000000	13.164153
708.000000	13.256600
709.000000	13.346598
710.000000	13.428317
711.000000	13.536471
712.000000	13.608503
713.000000	13.642478
714.000000	13.723721
715.000000	13.812474
716.000000	13.881855
717.000000	13.953518
718.000000	14.010687
719.000000	14.134028
720.000000	14.224545
721.000000	14.319768
722.000000	14.358502
723.000000	14.437826
724.000000	14.568147
725.000000	14.656400
726.000000	14.724410
727.000000	14.780601
728.000000	14.900078
729.000000	14.991993
730.000000	15.060567
731.000000	15.152994
732.000000	15.290213
733.000000	15.330531
734.000000	15.408665
735.000000	15.468160
736.000000	15.557269
737.000000	15.673383
738.000000	15.714526
739.000000	15.759477
740.000000	15.808883
741.000000	15.873463
742.000000	15.964564
743.000000	15.991447
744.000000	16.043459
745.000000	16.110313
746.000000	16.148752
747.000000	16.234130
748.000000	16.307443
749.000000	16.399619
750.000000	16.418401
751.000000	16.374781
752.000000	16.523172
753.000000	16.596767
754.000000	16.687061
755.000000	16.752095
756.000000	16.880457
757.000000	16.912466
758.000000	16.965652
759.000000	17.038385
760.000000	17.124038
761.000000	17.185929
762.000000	17.277916
763.000000	17.286720
764.000000	17.359309
765.000000	17.427282
766.000000	17.444675
767.000000	17.487418
768.000000	17.565088
769.000000	17.567572
770.000000	17.588613
771.000000	17.678184
772.000000	17.616967
773.000000	17.654632
774.000000	17.729676
775.000000	17.835452
776.000000	17.909233
777.000000	17.946681
778.000000	17.951565
779.000000	17.954214
780.000000	17.993838
781.000000	18.076742
782.000000	18.086544
783.000000	18.086680
784.000000	18.164792
785.000000	18.163988
786.000000	18.172084
787.000000	18.209008
788.000000	18.247185
789.000000	18.298614
790.000000	18.206202
791.000000	18.181844
792.000000	18.284855
793.000000	18.286013
794.000000	18.157004
795.000000	18.139198
796.000000	18.200041
797.000000	18.177325
798.000000	18.157877
799.000000	18.095144
800.000000	18.039375
801.000000	18.075994
802.000000	18.017174
803.000000	17.980662
804.000000	17.905620
805.000000	17.910672
806.000000	17.874521
807.000000	17.750422
808.000000	17.796415
809.000000	17.772109
810.000000	17.660823
811.000000	17.730092
812.000000	17.625675
813.000000	17.504590
814.000000	17.500851
815.000000	17.350665
816.000000	17.231995
817.000000	17.183554
818.000000	17.150993
819.000000	16.862722
820.000000	16.852735
821.000000	16.729763
822.000000	16.550764
823.000000	16.446972
824.000000	16.347234
825.000000	16.184282
826.000000	15.987757
827.000000	15.876680
828.000000	15.672890
829.000000	15.632183
830.000000	15.480396
831.000000	15.340228
832.000000	15.090776
833.000000	15.001242
834.000000	14.723955
835.000000	14.695412
836.000000	14.701743
837.000000	14.586401
838.000000	14.445714
839.000000	14.387915
840.000000	14.289497
841.000000	14.214977
842.000000	13.999534
843.000000	13.709933
844.000000	13.802088
845.000000	13.707772
846.000000	13.783276
847.000000	13.633899
848.000000	13.574077
849.000000	13.559782
850.000000	13.630087
851.000000	13.525327
852.000000	13.401036
853.000000	13.367623
854.000000	13.302211
855.000000	13.241537
856.000000	13.233751
857.000000	13.073344
858.000000	13.182053
859.000000	11.723173
860.000000	11.876881
861.000000	11.947961
862.000000	12.120188
863.000000	12.113463
864.000000	12.171672
865.000000	12.638927
866.000000	12.646001
867.000000	12.551077
868.000000	12.993130
869.000000	12.841723
870.000000	12.963520
871.000000	12.629102
872.000000	13.026066
873.000000	13.140339
874.000000	12.903005
875.000000	13.183157
876.000000	13.243539
877.000000	13.456200
878.000000	13.492909
879.000000	13.494673
880.000000	13.486681
881.000000	13.420310
882.000000	13.379245
883.000000	13.454216
884.000000	13.478333
885.000000	13.344068
886.000000	13.399087
887.000000	13.627011
888.000000	13.528844
889.000000	13.480176
890.000000	13.663795
891.000000	13.625193
892.000000	13.654666
893.000000	13.598733
894.000000	13.556164
895.000000	13.461248
896.000000	13.633091
897.000000	13.695903
898.000000	13.613922
899.000000	13.608452
900.000000	13.577705
901.000000	13.520475
902.000000	13.537119
903.000000	13.541748
904.000000	13.501791
905.000000	13.460704
906.000000	13.424251
907.000000	13.569985
908.000000	13.610901
909.000000	13.628823
910.000000	13.545139
911.000000	13.460909
912.000000	13.572158
913.000000	13.534464
914.000000	13.512856
915.000000	13.573193
916.000000	13.579442
917.000000	13.538369
918.000000	13.520761
919.000000	13.521429
920.000000	13.483405
921.000000	13.560779
922.000000	13.505668
923.000000	13.465157
924.000000	13.529884
925.000000	13.514410
926.000000	13.541227
927.000000	13.541511
928.000000	13.543978
929.000000	13.522798
930.000000	13.525288
931.000000	13.593042
932.000000	13.570531
933.000000	13.542512
934.000000	13.592342
935.000000	13.630812
936.000000	13.675611
937.000000	13.661082
938.000000	13.656071
939.000000	13.610398
940.000000	13.608884
941.000000	13.627769
942.000000	13.592291
943.000000	13.612621
944.000000	13.576707
945.000000	13.582225
946.000000	13.619424
947.000000	13.666465
948.000000	13.674815
949.000000	13.651809
950.000000	13.628445
951.000000	13.628093
952.000000	13.641753
953.000000	13.624380
954.000000	13.664008
955.000000	13.689374
956.000000	13.682588
957.000000	13.683032
958.000000	13.661382
959.000000	13.650495
960.000000	13.656732
961.000000	13.662193
962.000000	13.667421
963.000000	13.674384
964.000000	13.649412
965.000000	13.626423
966.000000	13.646095
967.000000	13.655301
968.000000	13.650439
969.000000	13.642009
970.000000	13.671260
971.000000	13.662676
972.000000	13.662436
973.000000	13.616194
974.000000	13.648647
975.000000	13.650596
976.000000	13.639318
977.000000	13.621651
978.000000	13.610051
979.000000	13.636550
980.000000	13.629606
981.000000	13.620137
982.000000	13.628696
983.000000	13.672796
984.000000	13.641664
985.000000	13.629868
986.000000	13.658398
987.000000	13.666460
988.000000	13.665815
989.000000	13.642481
990.000000	13.637847
991.000000	13.629443
992.000000	13.629891
993.000000	13.636247
994.000000	13.624074
995.000000	13.640511
996.000000	13.633703
997.000000	13.651114
998.000000	13.599106
999.000000	13.593837
1000.000000	13.591751
1001.000000	13.580771
1002.000000	13.559231
1003.000000	13.570641
1004.000000	13.585901
1005.000000	13.580947
1006.000000	13.561775
1007.000000	13.538945
1008.000000	13.532893
1009.000000	13.552298
1010.000000	13.538910
1011.000000	13.531415
1012.000000	13.535799
1013.000000	13.518581
1014.000000	13.518320
1015.000000	13.511514
1016.000000	13.511339
1017.000000	13.492347
1018.000000	13.488250
1019.000000	13.484027
1020.000000	13.487875
1021.000000	13.492110
1022.000000	13.489465
1023.000000	13.487941
1024.000000	13.497066
1025.000000	13.480368
1026.000000	13.486416
1027.000000	13.480447
1028.000000	13.474778
1029.000000	13.458865
1030.000000	13.434146
1031.000000	13.456082
1032.000000	13.461184
1033.000000	13.453052
1034.000000	13.454628
1035.000000	13.462721
1036.000000	13.452784
1037.000000	13.437037
1038.000000	13.443127
1039.000000	13.463062
1040.000000	13.448007
1041.000000	13.472699
1042.000000	13.457221
1043.000000	13.485532
1044.000000	13.453322
1045.000000	13.461959
1046.000000	13.492943
1047.000000	13.456423
1048.000000	13.462521
1049.000000	13.434118
1050.000000	13.437122
1051.000000	13.432708
1052.000000	13.421563
1053.000000	13.433978
1054.000000	13.404560
1055.000000	13.425484
1056.000000	13.432779
1057.000000	13.387133
1058.000000	13.376706
1059.000000	13.385106
1060.000000	13.379646
1061.000000	13.372234
1062.000000	13.379423
1063.000000	13.371167
1064.000000	13.402293
1065.000000	13.377193
1066.000000	13.386353
1067.000000	13.384053
1068.000000	13.373652
1069.000000	13.390144
1070.000000	13.378178
1071.000000	13.381490
1072.000000	13.366785
1073.000000	13.384887
1074.000000	13.386589
1075.000000	13.393273
1076.000000	13.383870
1077.000000	13.403550
1078.000000	13.387726
1079.000000	13.402649
1080.000000	13.401693
1081.000000	13.390944
1082.000000	13.416808
1083.000000	13.427593
1084.000000	13.437286
1085.000000	13.420003
1086.000000	13.432689
1087.000000	13.448999
1088.000000	13.428897
1089.000000	13.451579
1090.000000	13.453955
1091.000000	13.461086
1092.000000	13.460926
1093.000000	13.449926
1094.000000	13.451509
1095.000000	13.470344
1096.000000	13.452750
1097.000000	13.462078
1098.000000	13.459523
1099.000000	13.454022
1100.000000	13.457227
1101.000000	13.457414
1102.000000	13.440934
1103.000000	13.438326
1104.000000	13.437774
1105.000000	13.438836
1106.000000	13.429374
1107.000000	13.428027
1108.000000	13.433648
1109.000000	13.433752
1110.000000	13.421459
1111.000000	13.409996
1112.000000	13.417820
1113.000000	13.419751
1114.000000	13.413921
1115.000000	13.421866
1116.000000	13.400007
1117.000000	13.417151
1118.000000	13.422830
1119.000000	13.414475
1120.000000	13.414081
1121.000000	13.407859
1122.000000	13.397108
1123.000000	13.385424
1124.000000	13.397677
1125.000000	13.393597
1126.000000	13.384247
1127.000000	13.369103
1128.000000	13.344800
1129.000000	13.345140
1130.000000	13.340101
1131.000000	13.313541
1132.000000	13.280236
1133.000000	13.243129
1134.000000	13.232351
1135.000000	13.220683
1136.000000	13.209978
1137.000000	13.182803
1138.000000	13.153938
1139.000000	13.124600
1140.000000	13.109402
1141.000000	13.097056
1142.000000	13.079217
1143.000000	13.053990
1144.000000	13.037382
1145.000000	13.020907
1146.000000	13.006485
1147.000000	12.985304
1148.000000	12.985614
1149.000000	12.970981
1150.000000	12.947205
1151.000000	12.936297
1152.000000	12.926975
1153.000000	12.918526
1154.000000	12.901737
1155.000000	12.887519
1156.000000	12.866037
1157.000000	12.842394
1158.000000	12.806376
1159.000000	12.772467
1160.000000	12.757483
1161.000000	12.723484
1162.000000	12.671629
1163.000000	12.645107
1164.000000	12.621058
1165.000000	12.581648
1166.000000	12.542546
1167.000000	12.507347
1168.000000	12.463457
1169.000000	12.425489
1170.000000	12.404646
1171.000000	12.375533
1172.000000	12.352932
1173.000000	12.318727
1174.000000	12.291169
1175.000000	12.273124
1176.000000	12.245360
1177.000000	12.226657
1178.000000	12.212320
1179.000000	12.195390
1180.000000	12.173379
1181.000000	12.145200
1182.000000	12.132422
1183.000000	12.114392
1184.000000	12.091462
1185.000000	12.070157
1186.000000	12.062848
1187.000000	12.071660
1188.000000	12.060605
1189.000000	12.065333
1190.000000	12.085380
1191.000000	12.092966
1192.000000	12.112910
1193.000000	12.137970
1194.000000	12.148868
1195.000000	12.156108
1196.000000	12.169584
1197.000000	12.171033
1198.000000	12.187300
1199.000000	12.213661
1200.000000	12.224194
1201.000000	12.250136
1202.000000	12.278151
1203.000000	12.295238
1204.000000	12.309734
1205.000000	12.326282
1206.000000	12.339462
1207.000000	12.362179
1208.000000	12.386814
1209.000000	12.398983
1210.000000	12.416924
1211.000000	12.432074
1212.000000	12.441765
1213.000000	12.453194
1214.000000	12.462714
1215.000000	12.479127
1216.000000	12.514312
1217.000000	12.528211
1218.000000	12.548471
1219.000000	12.563472
1220.000000	12.569189
1221.000000	12.567503
1222.000000	12.566499
1223.000000	12.591399
1224.000000	12.609925
1225.000000	12.612003
1226.000000	12.622281
1227.000000	12.629084
1228.000000	12.633782
1229.000000	12.628353
1230.000000	12.629249
1231.000000	12.644740
1232.000000	12.648583
1233.000000	12.646145
1234.000000	12.652899
1235.000000	12.665234
1236.000000	12.674054
1237.000000	12.686971
1238.000000	12.689859
1239.000000	12.688247
1240.000000	12.697623
1241.000000	12.709787
1242.000000	12.717889
1243.000000	12.724257
1244.000000	12.738479
1245.000000	12.750198
1246.000000	12.756888
1247.000000	12.760958
1248.000000	12.774249
1249.000000	12.800059
1250.000000	12.798483
1251.000000	12.806708
1252.000000	12.806968
1253.000000	12.822654
1254.000000	12.828990
1255.000000	12.834614
1256.000000	12.847228
1257.000000	12.859479
1258.000000	12.845681
1259.000000	12.849032
1260.000000	12.855807
1261.000000	12.848196
1262.000000	12.845308
1263.000000	12.856247
1264.000000	12.864879
1265.000000	12.861797
1266.000000	12.849639
1267.000000	12.849103
1268.000000	12.843716
1269.000000	12.837565
1270.000000	12.829833
1271.000000	12.818949
1272.000000	12.826277
1273.000000	12.820188
1274.000000	12.821897
1275.000000	12.827250
1276.000000	12.821935
1277.000000	12.819571
1278.000000	12.819719
1279.000000	12.826389
1280.000000	12.832349
1281.000000	12.843738
1282.000000	12.852390
1283.000000	12.859925
1284.000000	12.860969
1285.000000	12.864467
1286.000000	12.862953
1287.000000	12.880639
1288.000000	12.893258
1289.000000	12.890075
1290.000000	12.895733
1291.000000	12.898551
1292.000000	12.903639
1293.000000	12.916267
1294.000000	12.925205
1295.000000	12.921847
1296.000000	12.926431
1297.000000	12.931203
1298.000000	12.939225
1299.000000	12.933374
1300.000000	12.937544
1301.000000	12.945867
1302.000000	12.938983
1303.000000	12.940925
1304.000000	12.951971
1305.000000	12.937610
1306.000000	12.927258
1307.000000	12.920646
1308.000000	12.910986
1309.000000	12.916381
1310.000000	12.912905
1311.000000	12.918452
1312.000000	12.901500
1313.000000	12.895279
1314.000000	12.887004
1315.000000	12.881693
1316.000000	12.870871
1317.000000	12.859281
1318.000000	12.848728
1319.000000	12.825118
1320.000000	12.819255
1321.000000	12.814315
1322.000000	12.796675
1323.000000	12.803309
1324.000000	12.779877
1325.000000	12.756490
1326.000000	12.744680
1327.000000	12.728132
1328.000000	12.714641
1329.000000	12.696794
1330.000000	12.686860
1331.000000	12.675581
1332.000000	12.650432
1333.000000	12.628960
1334.000000	12.598883
1335.000000	12.576678
1336.000000	12.565547
1337.000000	12.525185
1338.000000	12.483882
1339.000000	12.465575
1340.000000	12.444175
1341.000000	12.412513
1342.000000	12.388980
1343.000000	12.345215
1344.000000	12.323790
1345.000000	12.285617
1346.000000	12.234347
1347.000000	12.164708
1348.000000	12.141047
1349.000000	12.116473
1350.000000	12.067144
1351.000000	12.040755
1352.000000	11.991264
1353.000000	11.928608
1354.000000	11.899787
1355.000000	11.913684
1356.000000	11.879542
1357.000000	11.820896
1358.000000	11.804336
1359.000000	11.800596
1360.000000	11.772036
1361.000000	11.712039
1362.000000	11.740954
1363.000000	11.763038
1364.000000	11.676715
1365.000000	11.694291
1366.000000	11.683296
1367.000000	11.593330
1368.000000	11.603779
1369.000000	11.624522
1370.000000	11.542747
1371.000000	11.508037
1372.000000	11.484873
1373.000000	11.479532
1374.000000	11.432272
1375.000000	11.405162
1376.000000	11.390254
1377.000000	11.379349
1378.000000	11.364077
1379.000000	11.348033
1380.000000	11.293877
1381.000000	11.298229
1382.000000	11.255488
1383.000000	11.245749
1384.000000	11.180178
1385.000000	11.114515
1386.000000	11.077411
1387.000000	11.006402
1388.000000	10.958115
1389.000000	10.914570
1390.000000	10.837576
1391.000000	10.765249
1392.000000	10.722770
1393.000000	10.685875
1394.000000	10.583299
1395.000000	10.516576
1396.000000	10.508122
1397.000000	10.424100
1398.000000	10.329426
1399.000000	10.268146
1400.000000	10.217790
1401.000000	10.191187
1402.000000	10.090826
1403.000000	9.985045
1404.000000	9.894600
1405.000000	9.836796
1406.000000	9.757121
1407.000000	9.679538
1408.000000	9.617839
1409.000000	9.534305
1410.000000	9.475075
1411.000000	9.373335
1412.000000	9.278152
1413.000000	9.187355
1414.000000	9.120549
1415.000000	9.101617
1416.000000	9.005584
1417.000000	8.926823
1418.000000	8.859921
1419.000000	8.810068
1420.000000	8.782532
1421.000000	8.713452
1422.000000	8.612588
1423.000000	8.562470
1424.000000	8.535116
1425.000000	8.492042
1426.000000	8.438480
1427.000000	8.377860
1428.000000	8.350214
1429.000000	8.314187
1430.000000	8.257063
1431.000000	8.209008
1432.000000	8.205162
1433.000000	8.191806
1434.000000	8.140473
1435.000000	8.107990
1436.000000	8.071472
1437.000000	8.037998
1438.000000	8.018292
1439.000000	7.996749
1440.000000	7.988418
1441.000000	7.949337
1442.000000	7.920834
1443.000000	7.906380
1444.000000	7.885104
1445.000000	7.870900
1446.000000	7.880906
1447.000000	7.853303
1448.000000	7.839772
1449.000000	7.798760
1450.000000	7.793220
1451.000000	7.786881
1452.000000	7.771057
1453.000000	7.748140
1454.000000	7.724314
1455.000000	7.700309
1456.000000	7.690237
1457.000000	7.680837
1458.000000	7.666928
1459.000000	7.649430
1460.000000	7.628326
1461.000000	7.620057
1462.000000	7.604796
1463.000000	7.573646
1464.000000	7.569381
1465.000000	7.557461
1466.000000	7.552591
1467.000000	7.546369
1468.000000	7.521097
1469.000000	7.488491
1470.000000	7.474695
1471.000000	7.485270
1472.000000	7.472456
1473.000000	7.452883
1474.000000	7.428527
1475.000000	7.414092
1476.000000	7.394751
1477.000000	7.386036
1478.000000	7.386383
1479.000000	7.386546
1480.000000	7.378777
1481.000000	7.361513
1482.000000	7.353582
1483.000000	7.340808
1484.000000	7.335468
1485.000000	7.322275
1486.000000	7.311201
1487.000000	7.298772
1488.000000	7.293523
1489.000000	7.283798
1490.000000	7.271917
1491.000000	7.274635
1492.000000	7.274380
1493.000000	7.250992
1494.000000	7.245291
1495.000000	7.239386
1496.000000	7.224516
1497.000000	7.222061
1498.000000	7.228857
1499.000000	7.228937
1500.000000	7.238557
1501.000000	7.246724
1502.000000	7.241634
1503.000000	7.240507
1504.000000	7.253708
1505.000000	7.264590
1506.000000	7.268542
1507.000000	7.267373
1508.000000	7.267779
1509.000000	7.289880
1510.000000	7.301704
1511.000000	7.312321
1512.000000	7.325803
1513.000000	7.337627
1514.000000	7.336064
1515.000000	7.343302
1516.000000	7.371285
1517.000000	7.380662
1518.000000	7.388746
1519.000000	7.398477
1520.000000	7.411955
1521.000000	7.422324
1522.000000	7.430145
1523.000000	7.438171
1524.000000	7.447720
1525.000000	7.455713
1526.000000	7.467018
1527.000000	7.471215
1528.000000	7.489005
1529.000000	7.504747
1530.000000	7.497939
1531.000000	7.513033
1532.000000	7.522281
1533.000000	7.534991
1534.000000	7.543337
1535.000000	7.549087
1536.000000	7.548926
1537.000000	7.580092
1538.000000	7.593269
1539.000000	7.595853
1540.000000	7.610769
1541.000000	7.613687
1542.000000	7.606795
1543.000000	7.631657
1544.000000	7.642764
1545.000000	7.654281
1546.000000	7.661437
1547.000000	7.659940
1548.000000	7.674174
1549.000000	7.683828
1550.000000	7.707159
1551.000000	7.735857
1552.000000	7.745406
1553.000000	7.760272
1554.000000	7.781628
1555.000000	7.797344
1556.000000	7.804716
1557.000000	7.827659
1558.000000	7.827890
1559.000000	7.838029
1560.000000	7.843771
1561.000000	7.855196
1562.000000	7.856436
1563.000000	7.850812
1564.000000	7.839122
1565.000000	7.850904
1566.000000	7.858371
1567.000000	7.856961
1568.000000	7.855106
1569.000000	7.849593
1570.000000	7.839520
1571.000000	7.830910
1572.000000	7.833502
1573.000000	7.828198
1574.000000	7.815132
1575.000000	7.818720
1576.000000	7.833807
1577.000000	7.830823
1578.000000	7.817703
1579.000000	7.829276
1580.000000	7.839285
1581.000000	7.826350
1582.000000	7.843976
1583.000000	7.856244
1584.000000	7.842541
1585.000000	7.850796
1586.000000	7.846488
1587.000000	7.864244
1588.000000	7.867422
1589.000000	7.881406
1590.000000	7.883698
1591.000000	7.890846
1592.000000	7.901647
1593.000000	7.921336
1594.000000	7.923722
1595.000000	7.930724
1596.000000	7.951894
1597.000000	7.963484
1598.000000	7.979609
1599.000000	7.971354
1600.000000	7.985300
1601.000000	8.002767
1602.000000	8.009871
1603.000000	8.031378
1604.000000	8.019762
1605.000000	8.046680
1606.000000	8.054203
1607.000000	8.069141
1608.000000	8.080763
1609.000000	8.079590
1610.000000	8.095683
1611.000000	8.095587
1612.000000	8.130755
1613.000000	8.126834
1614.000000	8.139069
1615.000000	8.156177
1616.000000	8.145121
1617.000000	8.142670
1618.000000	8.161717
1619.000000	8.168253
1620.000000	8.168587
1621.000000	8.184994
1622.000000	8.164921
1623.000000	8.181957
1624.000000	8.192820
1625.000000	8.191269
1626.000000	8.201519
1627.000000	8.230003
1628.000000	8.229638
1629.000000	8.232816
1630.000000	8.251659
1631.000000	8.239010
1632.000000	8.246863
1633.000000	8.254576
1634.000000	8.262314
1635.000000	8.262853
1636.000000	8.289248
1637.000000	8.285248
1638.000000	8.303413
1639.000000	8.296435
1640.000000	8.318303
1641.000000	8.328386
1642.000000	8.319994
1643.000000	8.320562
1644.000000	8.317217
1645.000000	8.336853
1646.000000	8.334428
1647.000000	8.340549
1648.000000	8.325519
1649.000000	8.330578
1650.000000	8.346199
1651.000000	8.352205
1652.000000	8.338077
1653.000000	8.336851
1654.000000	8.323510
1655.000000	8.325634
1656.000000	8.330480
1657.000000	8.325239
1658.000000	8.299922
1659.000000	8.293641
1660.000000	8.288070
1661.000000	8.260879
1662.000000	8.231458
1663.000000	8.212871
1664.000000	8.165452
1665.000000	8.136896
1666.000000	8.092039
1667.000000	8.075947
1668.000000	8.038270
1669.000000	8.005216
1670.000000	7.977798
1671.000000	7.943757
1672.000000	7.915795
1673.000000	7.870416
1674.000000	7.826247
1675.000000	7.795132
1676.000000	7.743070
1677.000000	7.715504
1678.000000	7.683721
1679.000000	7.660676
1680.000000	7.623397
1681.000000	7.584976
1682.000000	7.539632
1683.000000	7.491227
1684.000000	7.452387
1685.000000	7.422214
1686.000000	7.377416
1687.000000	7.330420
1688.000000	7.314938
1689.000000	7.289044
1690.000000	7.273678
1691.000000	7.275551
1692.000000	7.292069
1693.000000	7.297919
1694.000000	7.319841
1695.000000	7.343540
1696.000000	7.334857
1697.000000	7.344391
1698.000000	7.355712
1699.000000	7.329387
1700.000000	7.331627
1701.000000	7.350182
1702.000000	7.338556
1703.000000	7.343122
1704.000000	7.328290
1705.000000	7.322695
1706.000000	7.310323
1707.000000	7.306083
1708.000000	7.294041
1709.000000	7.279167
1710.000000	7.254525
1711.000000	7.234091
1712.000000	7.202483
1713.000000	7.168078
1714.000000	7.157991
1715.000000	7.133640
1716.000000	7.095172
1717.000000	7.062646
1718.000000	7.019641
1719.000000	6.962842
1720.000000	6.913729
1721.000000	6.878597
1722.000000	6.847334
1723.000000	6.818516
1724.000000	6.789311
1725.000000	6.782828
1726.000000	6.776899
1727.000000	6.767997
1728.000000	6.768400
1729.000000	6.783920
1730.000000	6.795839
1731.000000	6.784796
1732.000000	6.787811
1733.000000	6.798532
1734.000000	6.808397
1735.000000	6.815935
1736.000000	6.828380
1737.000000	6.823251
1738.000000	6.834339
1739.000000	6.848901
1740.000000	6.853136
1741.000000	6.884226
1742.000000	6.883597
1743.000000	6.881832
1744.000000	6.908457
1745.000000	6.933671
1746.000000	6.948590
1747.000000	6.969213
1748.000000	6.984572
1749.000000	6.988997
1750.000000	7.004286
1751.000000	7.005448
1752.000000	7.015166
1753.000000	7.023767
1754.000000	7.042276
1755.000000	7.043228
1756.000000	7.044762
1757.000000	7.053236
1758.000000	7.069249
1759.000000	7.078992
1760.000000	7.093191
1761.000000	7.103394
1762.000000	7.104535
1763.000000	7.106702
1764.000000	7.110062
1765.000000	7.119111
1766.000000	7.127269
1767.000000	7.141597
1768.000000	7.140165
1769.000000	7.150183
1770.000000	7.187588
1771.000000	7.201238
1772.000000	7.209142
1773.000000	7.228869
1774.000000	7.237294
1775.000000	7.246226
1776.000000	7.254112
1777.000000	7.276356
1778.000000	7.283256
1779.000000	7.273876
1780.000000	7.302144
1781.000000	7.338120
1782.000000	7.334504
1783.000000	7.335243
1784.000000	7.344045
1785.000000	7.344808
1786.000000	7.351865
1787.000000	7.364254
1788.000000	7.364912
1789.000000	7.367256
1790.000000	7.390464
1791.000000	7.401224
1792.000000	7.401099
1793.000000	7.403910
1794.000000	7.413726
1795.000000	7.411940
1796.000000	7.416159
1797.000000	7.423492
1798.000000	7.428468
1799.000000	7.418940
1800.000000	7.439030
1801.000000	7.459611
1802.000000	7.469841
1803.000000	7.450290
1804.000000	7.466969
1805.000000	7.466844
1806.000000	7.487382
1807.000000	7.468276
1808.000000	7.489046
1809.000000	7.490589
1810.000000	7.475308
1811.000000	7.491344
1812.000000	7.503314
1813.000000	7.526268
1814.000000	7.513178
1815.000000	7.466507
1816.000000	7.499369
1817.000000	7.517620
1818.000000	7.544486
1819.000000	7.510384
1820.000000	7.448783
1821.000000	7.486396
1822.000000	7.531853
1823.000000	7.524215
1824.000000	7.540184
1825.000000	7.518842
1826.000000	7.512562
1827.000000	7.537707
1828.000000	7.529134
1829.000000	7.546822
1830.000000	7.528534
1831.000000	7.515039
1832.000000	7.527671
1833.000000	7.545572
1834.000000	7.541408
1835.000000	7.555053
1836.000000	7.499684
1837.000000	7.519924
1838.000000	7.596025
1839.000000	7.584692
1840.000000	7.591634
1841.000000	7.556543
1842.000000	7.563007
1843.000000	7.605013
1844.000000	7.621099
1845.000000	7.656034
1846.000000	7.589234
1847.000000	7.503064
1848.000000	7.568936
1849.000000	7.644855
1850.000000	7.607587
1851.000000	7.647833
1852.000000	7.604799
1853.000000	7.549695
1854.000000	7.595747
1855.000000	7.609900
1856.000000	7.554232
1857.000000	7.611354
1858.000000	7.586388
1859.000000	7.483958
1860.000000	7.471675
1861.000000	7.505032
1862.000000	7.568836
1863.000000	7.456506
1864.000000	7.462973
1865.000000	7.511901
1866.000000	7.478079
1867.000000	7.392159
1868.000000	7.379782
1869.000000	7.322989
1870.000000	7.296014
1871.000000	7.340111
1872.000000	7.309407
1873.000000	7.208758
1874.000000	7.215634
1875.000000	7.229016
1876.000000	7.060712
1877.000000	7.046043
1878.000000	7.036826
1879.000000	6.987040
1880.000000	6.886294
1881.000000	6.860599
1882.000000	6.812124
1883.000000	6.748657
1884.000000	6.653176
1885.000000	6.575715
1886.000000	6.505972
1887.000000	6.435863
1888.000000	6.376957
1889.000000	6.226708
1890.000000	6.121695
1891.000000	6.074731
1892.000000	5.983434
1893.000000	5.775730
1894.000000	5.733530
1895.000000	5.624342
1896.000000	5.539611
1897.000000	5.446516
1898.000000	5.322053
1899.000000	5.116419
1900.000000	5.147408
1901.000000	5.008239
1902.000000	4.899519
1903.000000	4.830942
1904.000000	4.742788
1905.000000	4.553154
1906.000000	4.475880
1907.000000	4.447970
1908.000000	4.366044
1909.000000	4.250501
1910.000000	4.204427
1911.000000	4.123203
1912.000000	4.116221
1913.000000	3.989771
1914.000000	3.938202
1915.000000	3.915103
1916.000000	3.848233
1917.000000	3.847316
1918.000000	3.819663
1919.000000	3.714470
1920.000000	3.662088
1921.000000	3.684166
1922.000000	3.663216
1923.000000	3.543150
1924.000000	3.567546
1925.000000	3.538906
1926.000000	3.491152
1927.000000	3.457035
1928.000000	3.464645
1929.000000	3.458366
1930.000000	3.471407
1931.000000	3.463771
1932.000000	3.459433
1933.000000	3.425791
1934.000000	3.445452
1935.000000	3.429532
1936.000000	3.416554
1937.000000	3.405376
1938.000000	3.400320
1939.000000	3.424262
1940.000000	3.436311
1941.000000	3.433087
1942.000000	3.453429
1943.000000	3.491233
1944.000000	3.502528
1945.000000	3.497941
1946.000000	3.483698
1947.000000	3.504794
1948.000000	3.555552
1949.000000	3.554682
1950.000000	3.537949
1951.000000	3.578996
1952.000000	3.573579
1953.000000	3.605544
1954.000000	3.613390
1955.000000	3.613932
1956.000000	3.643520
1957.000000	3.698847
1958.000000	3.729094
1959.000000	3.753205
1960.000000	3.726119
1961.000000	3.724961
1962.000000	3.791967
1963.000000	3.813378
1964.000000	3.827672
1965.000000	3.850916
1966.000000	3.857831
1967.000000	3.894616
1968.000000	3.895447
1969.000000	3.888439
1970.000000	3.896457
1971.000000	3.908919
1972.000000	3.935632
1973.000000	3.971344
1974.000000	3.981457
1975.000000	3.977337
1976.000000	4.004856
1977.000000	4.011106
1978.000000	4.018003
1979.000000	4.046895
1980.000000	4.082996
1981.000000	4.118676
1982.000000	4.104350
1983.000000	4.124543
1984.000000	4.171863
1985.000000	4.180283
1986.000000	4.170937
1987.000000	4.214988
1988.000000	4.238086
1989.000000	4.215882
1990.000000	4.223073
1991.000000	4.238149
1992.000000	4.260879
1993.000000	4.259610
1994.000000	4.255539
1995.000000	4.332343
1996.000000	4.366548
1997.000000	4.336743
1998.000000	4.338503
1999.000000	4.359453
2000.000000	4.398880
2001.000000	4.385298
2002.000000	4.353526
2003.000000	4.376592
2004.000000	4.423899
2005.000000	4.424241
2006.000000	4.393756
2007.000000	4.397154
2008.000000	4.408892
2009.000000	4.435008
2010.000000	4.474603
2011.000000	4.449721
2012.000000	4.385512
2013.000000	4.365853
2014.000000	4.420255
2015.000000	4.410944
2016.000000	4.398855
2017.000000	4.378864
2018.000000	4.372813
2019.000000	4.409232
2020.000000	4.397140
2021.000000	4.345410
2022.000000	4.309937
2023.000000	4.329834
2024.000000	4.359641
2025.000000	4.351140
2026.000000	4.268534
2027.000000	4.217505
2028.000000	4.197912
2029.000000	4.214296
2030.000000	4.190377
2031.000000	4.111832
2032.000000	4.142440
2033.000000	4.153799
2034.000000	4.117548
2035.000000	4.095512
2036.000000	4.067343
2037.000000	4.066246
2038.000000	4.032593
2039.000000	4.012073
2040.000000	3.892782
2041.000000	3.909984
2042.000000	3.857287
2043.000000	3.794797
2044.000000	3.844131
2045.000000	3.849464
2046.000000	3.785199
2047.000000	3.749493
2048.000000	3.744966
2049.000000	3.674200
2050.000000	3.616926
2051.000000	3.695425
2052.000000	3.702557
2053.000000	3.569827
2054.000000	3.529867
2055.000000	3.633649
2056.000000	3.586072
2057.000000	3.589986
2058.000000	3.577474
2059.000000	3.546984
2060.000000	3.528207
2061.000000	3.583745
2062.000000	3.633968
2063.000000	3.635033
2064.000000	3.690147
2065.000000	3.648530
2066.000000	3.642208
2067.000000	3.715487
2068.000000	3.817835
2069.000000	3.732664
2070.000000	3.722569
2071.000000	3.743358
2072.000000	3.725896
2073.000000	3.732005
2074.000000	3.825182
2075.000000	3.820730
2076.000000	3.846415
2077.000000	3.859612
2078.000000	3.875602
2079.000000	3.921989
2080.000000	3.908719
2081.000000	3.979773
2082.000000	4.015740
2083.000000	3.984448
2084.000000	3.925299
2085.000000	3.873109
2086.000000	3.942157
2087.000000	3.852685
2088.000000	3.925813
2089.000000	3.980028
2090.000000	3.962551
2091.000000	3.880306
2092.000000	3.858447
2093.000000	3.941093
2094.000000	3.964466
2095.000000	3.876754
2096.000000	4.058102
2097.000000	3.922886
2098.000000	3.887481
2099.000000	3.791324
2100.000000	3.857467
2101.000000	3.844398
2102.000000	3.924499
2103.000000	3.849987
2104.000000	3.798437
2105.000000	3.739588
2106.000000	3.834627
2107.000000	4.066724
2108.000000	3.906132
2109.000000	3.800686
2110.000000	3.914421
2111.000000	3.797350
2112.000000	3.881121
2113.000000	3.952873
2114.000000	3.913614
2115.000000	3.852127
2116.000000	3.727335
2117.000000	3.874398
2118.000000	3.789105
2119.000000	3.841295
2120.000000	3.860979
2121.000000	3.849361
2122.000000	3.875266
2123.000000	3.835047
2124.000000	3.707831
2125.000000	3.647103
2126.000000	3.726420
2127.000000	3.711717
2128.000000	3.744015
2129.000000	3.635999
2130.000000	3.899279
2131.000000	3.675012
2132.000000	3.756696
2133.000000	3.608557
2134.000000	3.659754
2135.000000	3.501146
2136.000000	3.494555
2137.000000	3.494829
2138.000000	3.464969
2139.000000	3.700868
2140.000000	3.331803
2141.000000	3.557139
2142.000000	3.327852
2143.000000	3.434488
2144.000000	3.381430
2145.000000	3.307791
2146.000000	3.427045
2147.000000	3.192973
2148.000000	3.301504
2149.000000	3.032695
2150.000000	3.441759
2151.000000	3.410905
2152.000000	3.461448
2153.000000	3.133785
2154.000000	3.232057
2155.000000	3.054629
2156.000000	3.280305
2157.000000	3.135670
2158.000000	3.266701
2159.000000	3.120879
2160.000000	3.185346
2161.000000	3.311841
2162.000000	3.170558
2163.000000	3.096602
2164.000000	3.123649
2165.000000	3.270007
2166.000000	3.249059
2167.000000	3.286671
2168.000000	3.073990
2169.000000	3.112383
2170.000000	3.041972
2171.000000	2.998578
2172.000000	3.167154
2173.000000	3.172050
2174.000000	3.129056
2175.000000	3.031344
2176.000000	3.184218
2177.000000	3.096698
2178.000000	3.108578
2179.000000	3.093911
2180.000000	3.241286
2181.000000	3.038106
2182.000000	3.027510
2183.000000	3.091234
2184.000000	3.088077
2185.000000	3.218290
2186.000000	3.021176
2187.000000	3.060444
2188.000000	3.115260
2189.000000	3.090268
2190.000000	2.957069
2191.000000	3.052405
2192.000000	3.081934
2193.000000	3.027155
2194.000000	2.976766
2195.000000	2.888253
2196.000000	3.107201
2197.000000	3.053412
2198.000000	3.060045
2199.000000	3.106632
2200.000000	3.100725
2201.000000	3.166691
2202.000000	3.045797
2203.000000	3.001982
2204.000000	2.966676
2205.000000	3.000898
2206.000000	3.311673
2207.000000	3.272317
2208.000000	3.193265
2209.000000	3.130843
2210.000000	3.232188
2211.000000	3.226252
2212.000000	3.082107
2213.000000	3.062379
2214.000000	3.234784
2215.000000	3.149568
2216.000000	3.266847
2217.000000	3.168913
2218.000000	3.204139
2219.000000	3.286314
2220.000000	3.220863
2221.000000	3.180613
2222.000000	3.282351
2223.000000	3.295938
2224.000000	3.347546
2225.000000	3.292031
2226.000000	3.182935
2227.000000	3.214358
2228.000000	3.165980
2229.000000	3.191807
2230.000000	3.119301
2231.000000	3.201980
2232.000000	3.279607
2233.000000	3.251250
2234.000000	3.280684
2235.000000	3.342699
2236.000000	3.415100
2237.000000	3.242561
2238.000000	3.150554
2239.000000	3.236316
2240.000000	3.351155
2241.000000	3.399577
2242.000000	3.304843
2243.000000	3.256818
2244.000000	3.104422
2245.000000	3.184567
2246.000000	3.153185
2247.000000	3.002274
2248.000000	3.063805
2249.000000	3.008955
2250.000000	2.920126
2251.000000	2.892510
2252.000000	2.798883
2253.000000	2.919086
2254.000000	2.866316
2255.000000	2.736986
2256.000000	2.752119
2257.000000	2.786134
2258.000000	2.735255
2259.000000	2.727241
2260.000000	2.694146
2261.000000	2.819960
2262.000000	2.896217
2263.000000	2.824809
2264.000000	2.641810
2265.000000	2.551746
2266.000000	2.569017
2267.000000	2.528366
2268.000000	2.591014
2269.000000	2.683785
2270.000000	2.698779
2271.000000	2.660843
2272.000000	2.479297
2273.000000	2.587751
2274.000000	2.724712
2275.000000	2.603105
2276.000000	2.571035
2277.000000	2.505518
2278.000000	2.512311
2279.000000	2.559850
2280.000000	2.474603
2281.000000	2.577560
2282.000000	2.585425
2283.000000	2.556523
2284.000000	2.647711
2285.000000	2.486539
2286.000000	2.406316
2287.000000	2.398851
2288.000000	2.411899
2289.000000	2.458008
2290.000000	2.543281
2291.000000	2.451538
2292.000000	2.260279
2293.000000	2.263490
2294.000000	2.379430
2295.000000	2.398191
2296.000000	2.279950
2297.000000	2.295334
2298.000000	2.340829
2299.000000	2.393452
2300.000000	2.447175
2301.000000	2.408776
2302.000000	2.219027
2303.000000	2.311159
2304.000000	2.516187
2305.000000	2.536135
2306.000000	2.517434
2307.000000	2.553869
2308.000000	2.448976
2309.000000	2.445772
2310.000000	2.602415
2311.000000	2.514803
2312.000000	2.493161
2313.000000	2.439516
2314.000000	2.400114
2315.000000	2.396207
2316.000000	2.473684
2317.000000	2.330362
2318.000000	2.225292
2319.000000	2.315075
2320.000000	2.420919
2321.000000	2.452636
2322.000000	2.419591
2323.000000	2.255186
2324.000000	2.541119
2325.000000	2.526820
2326.000000	2.313872
2327.000000	2.195887
2328.000000	2.273928
2329.000000	1.980754
2330.000000	2.293560
2331.000000	2.420716
2332.000000	2.385315
2333.000000	2.210337
2334.000000	2.184311
2335.000000	2.201462
2336.000000	2.293446
2337.000000	2.257329
2338.000000	2.157509
2339.000000	2.135305
2340.000000	2.309124
2341.000000	2.180084
2342.000000	1.909658
2343.000000	1.985396
2344.000000	2.221543
2345.000000	2.095438
2346.000000	2.326809
2347.000000	2.675427
2348.000000	2.396166
2349.000000	2.226473
2350.000000	2.231054
2351.000000	1.863708
2352.000000	2.458158
2353.000000	2.262236
2354.000000	2.079939
2355.000000	2.213340
2356.000000	2.201160
2357.000000	1.911791
2358.000000	2.062233
2359.000000	2.017804
2360.000000	2.459624
2361.000000	2.242574
2362.000000	2.757703
2363.000000	2.378941
2364.000000	2.207194
2365.000000	1.823072
2366.000000	1.910524
2367.000000	2.082339
2368.000000	2.495033
2369.000000	2.319901
2370.000000	2.465684
2371.000000	2.005409
2372.000000	2.362332
2373.000000	2.537411
2374.000000	2.248252
2375.000000	1.961653
2376.000000	1.652043
2377.000000	2.295005
2378.000000	2.492635
2379.000000	2.323346
2380.000000	2.508459
2381.000000	2.196898
2382.000000	2.255704
2383.000000	1.693360
2384.000000	2.365785
2385.000000	2.061512
2386.000000	2.067641
2387.000000	2.418823
2388.000000	1.894482
2389.000000	2.031099
2390.000000	2.294115
2391.000000	2.135248
2392.000000	2.241467
2393.000000	2.158530
2394.000000	2.400064
2395.000000	2.170397
2396.000000	2.312679
2397.000000	1.813743
2398.000000	2.512743
2399.000000	2.313261
2400.000000	2.425316
2401.000000	0.599607
2402.000000	0.593149
2403.000000	0.592184
2404.000000	0.585083
2405.000000	0.583633
2406.000000	0.585928
2407.000000	0.586553
2408.000000	0.584707
2409.000000	0.602918
2410.000000	0.613648
2411.000000	0.584899
2412.000000	0.580021
2413.000000	0.582149
2414.000000	0.586032
2415.000000	0.581716
2416.000000	0.580419
2417.000000	0.599257
2418.000000	0.594533
2419.000000	0.587428
2420.000000	0.586927
2421.000000	0.589371
2422.000000	0.590223
2423.000000	0.608900
2424.000000	0.614595
2425.000000	0.631997
2426.000000	0.651399
2427.000000	0.648825
2428.000000	0.657552
2429.000000	0.635154
2430.000000	0.631304
2431.000000	0.629841
2432.000000	0.623761
2433.000000	0.623012
2434.000000	0.604117
2435.000000	0.597874
2436.000000	0.581521
2437.000000	0.577111
2438.000000	0.578907
2439.000000	0.569882
2440.000000	0.553612
2441.000000	0.544183
2442.000000	0.540325
2443.000000	0.541804
2444.000000	0.519400
2445.000000	0.527088
2446.000000	0.516472
2447.000000	0.498847
2448.000000	0.507411
2449.000000	0.492570
2450.000000	0.479804
2451.000000	0.474916
2452.000000	0.467399
2453.000000	0.467692
2454.000000	0.501889
2455.000000	0.459680
2456.000000	0.441026
2457.000000	0.423568
2458.000000	0.418688
2459.000000	0.407363
2460.000000	0.428353
2461.000000	0.397288
2462.000000	0.400854
2463.000000	0.425905
2464.000000	0.408381
2465.000000	0.394199
2466.000000	0.374593
2467.000000	0.395914
2468.000000	0.391675
2469.000000	0.350906
2470.000000	0.376524
2471.000000	0.361624
2472.000000	0.402285
2473.000000	0.390975
2474.000000	0.333102
2475.000000	0.353305
2476.000000	0.347482
2477.000000	0.363232
2478.000000	0.363307
2479.000000	0.346260
2480.000000	0.287196
2481.000000	0.271350
2482.000000	0.392183
2483.000000	0.341714
2484.000000	0.344420
2485.000000	0.430859
2486.000000	0.326596
2487.000000	0.318371
2488.000000	0.349907
2489.000000	0.331278
2490.000000	0.385969
2491.000000	0.410964
2492.000000	0.306060
2493.000000	0.397268
2494.000000	0.292140
2495.000000	0.347951
2496.000000	0.337115
2497.000000	0.363704
2498.000000	0.421808
2499.000000	0.292326
2500.000000	0.296546
