PE UV       SUBTECH     SPECTRUM    ASCII       PEDS        4.00        
   -1
CICIMAUCR0001-5.Sample.ASC
24/04/23
10:47:46.00
24/04/23
10:47:46.00
Vinicio Soto Monge
C. kalinini
250,000000
1
Lambda 1050
1050L1511233
PerkinElmer UV WinLab 6.3.2.0749 / 2.02.05 Lambda 900 UV/VIS/NIR, Aug  7 2015 09:38:08

0
0
3350/servo 860,8/2
0
0
UV/VIS
1
1
1
DoubleDePol,CommonBeamDepol,RBeamAtt,SBeamAtt,60mm sphere, WB InGaAs Detector
0
0
0
0
Program
Program
3350/servo 860,8/2
3350/0,2 860,8/0,2
3350/0,2 860,8/0,2
0
15.00
 
 
 
0
 
860,8
319,2
860,8
Front
100
on
S:100 R:100
0
0
0
0
 
0
 
 
 
0
 
 
0
0
0
0
0
 
 
 
 
0
0


0
0
#HDR
-1
-1
#GR
nm
%R
1.0
0.0
2500,000000
-1,000000
2251
8
101,472100
5,465400
#DATA
250.000000	0.736568
251.000000	0.739775
252.000000	0.733664
253.000000	0.712537
254.000000	0.719398
255.000000	0.739072
256.000000	0.716021
257.000000	0.713714
258.000000	0.714032
259.000000	0.721171
260.000000	0.735479
261.000000	0.712889
262.000000	0.685472
263.000000	0.693509
264.000000	0.685263
265.000000	0.687635
266.000000	0.683950
267.000000	0.660449
268.000000	0.653233
269.000000	0.677892
270.000000	0.676442
271.000000	0.674447
272.000000	0.669221
273.000000	0.679058
274.000000	0.654277
275.000000	0.647554
276.000000	0.638614
277.000000	0.672617
278.000000	0.666902
279.000000	0.651016
280.000000	0.629592
281.000000	0.607630
282.000000	0.648579
283.000000	0.657241
284.000000	0.644429
285.000000	0.606573
286.000000	0.627768
287.000000	0.632642
288.000000	0.645156
289.000000	0.638919
290.000000	0.608630
291.000000	0.613320
292.000000	0.621379
293.000000	0.641397
294.000000	0.651824
295.000000	0.618187
296.000000	0.569987
297.000000	0.573131
298.000000	0.592750
299.000000	0.603167
300.000000	0.573420
301.000000	0.562080
302.000000	0.561366
303.000000	0.568142
304.000000	0.584424
305.000000	0.576491
306.000000	0.600316
307.000000	0.616709
308.000000	0.603354
309.000000	0.590964
310.000000	0.575237
311.000000	0.579822
312.000000	0.584829
313.000000	0.601260
314.000000	0.593788
315.000000	0.567112
316.000000	0.622144
317.000000	0.592897
318.000000	0.440891
319.000000	0.517478
320.000000	0.557541
321.000000	0.529080
322.000000	0.555116
323.000000	0.629351
324.000000	0.614967
325.000000	0.521278
326.000000	0.523608
327.000000	0.518250
328.000000	0.567871
329.000000	0.558820
330.000000	0.575649
331.000000	0.631538
332.000000	0.602053
333.000000	0.627163
334.000000	0.638433
335.000000	0.585204
336.000000	0.552467
337.000000	0.575599
338.000000	0.608846
339.000000	0.599581
340.000000	0.635371
341.000000	0.579213
342.000000	0.478009
343.000000	0.549568
344.000000	0.588099
345.000000	0.573514
346.000000	0.641119
347.000000	0.626221
348.000000	0.641779
349.000000	0.617701
350.000000	0.581698
351.000000	0.574592
352.000000	0.575915
353.000000	0.621602
354.000000	0.626485
355.000000	0.624455
356.000000	0.612716
357.000000	0.612381
358.000000	0.636039
359.000000	0.620511
360.000000	0.616437
361.000000	0.620513
362.000000	0.628009
363.000000	0.588806
364.000000	0.643235
365.000000	0.684804
366.000000	0.655932
367.000000	0.640773
368.000000	0.626244
369.000000	0.630003
370.000000	0.668329
371.000000	0.606552
372.000000	0.680879
373.000000	0.725946
374.000000	0.665705
375.000000	0.583124
376.000000	0.588599
377.000000	0.593753
378.000000	0.606910
379.000000	0.606804
380.000000	0.603943
381.000000	0.598296
382.000000	0.604276
383.000000	0.614471
384.000000	0.617501
385.000000	0.610467
386.000000	0.598826
387.000000	0.605342
388.000000	0.610537
389.000000	0.601375
390.000000	0.592188
391.000000	0.590448
392.000000	0.584174
393.000000	0.587792
394.000000	0.590126
395.000000	0.577063
396.000000	0.569827
397.000000	0.560471
398.000000	0.558517
399.000000	0.561099
400.000000	0.547407
401.000000	0.548083
402.000000	0.542353
403.000000	0.553377
404.000000	0.561602
405.000000	0.560751
406.000000	0.570206
407.000000	0.582544
408.000000	0.590320
409.000000	0.613769
410.000000	0.640271
411.000000	0.660665
412.000000	0.683213
413.000000	0.713672
414.000000	0.742183
415.000000	0.771820
416.000000	0.811202
417.000000	0.846723
418.000000	0.887313
419.000000	0.927330
420.000000	0.967153
421.000000	1.005873
422.000000	1.036997
423.000000	1.076918
424.000000	1.117041
425.000000	1.154334
426.000000	1.183429
427.000000	1.228741
428.000000	1.266726
429.000000	1.296668
430.000000	1.337955
431.000000	1.375242
432.000000	1.408912
433.000000	1.448874
434.000000	1.497099
435.000000	1.536937
436.000000	1.588943
437.000000	1.634116
438.000000	1.678301
439.000000	1.727455
440.000000	1.784648
441.000000	1.853803
442.000000	1.910819
443.000000	1.982294
444.000000	2.036721
445.000000	2.131320
446.000000	2.236572
447.000000	2.317255
448.000000	2.404144
449.000000	2.488483
450.000000	2.547338
451.000000	2.633455
452.000000	2.713938
453.000000	2.800803
454.000000	2.895670
455.000000	2.967914
456.000000	3.029469
457.000000	3.106170
458.000000	3.178908
459.000000	3.252711
460.000000	3.311736
461.000000	3.378005
462.000000	3.412637
463.000000	3.456401
464.000000	3.508153
465.000000	3.550551
466.000000	3.587132
467.000000	3.604799
468.000000	3.630619
469.000000	3.648334
470.000000	3.664597
471.000000	3.679929
472.000000	3.684212
473.000000	3.699963
474.000000	3.711575
475.000000	3.705454
476.000000	3.714327
477.000000	3.725488
478.000000	3.729429
479.000000	3.730595
480.000000	3.711199
481.000000	3.640329
482.000000	3.601782
483.000000	3.572157
484.000000	3.574685
485.000000	3.558194
486.000000	3.574232
487.000000	3.578098
488.000000	3.576813
489.000000	3.585244
490.000000	3.602390
491.000000	3.607507
492.000000	3.631331
493.000000	3.637732
494.000000	3.645520
495.000000	3.680385
496.000000	3.705944
497.000000	3.733096
498.000000	3.768287
499.000000	3.801990
500.000000	3.846158
501.000000	3.901434
502.000000	3.955844
503.000000	4.006292
504.000000	4.052270
505.000000	4.100202
506.000000	4.172190
507.000000	4.237836
508.000000	4.309833
509.000000	4.384221
510.000000	4.470675
511.000000	4.542403
512.000000	4.632351
513.000000	4.725932
514.000000	4.821782
515.000000	4.913355
516.000000	5.025166
517.000000	5.135234
518.000000	5.237389
519.000000	5.359542
520.000000	5.478812
521.000000	5.604826
522.000000	5.748789
523.000000	5.895426
524.000000	6.051441
525.000000	6.211490
526.000000	6.375174
527.000000	6.588423
528.000000	6.781930
529.000000	7.010787
530.000000	7.219823
531.000000	7.448083
532.000000	7.672597
533.000000	7.910439
534.000000	8.133716
535.000000	8.352323
536.000000	8.569808
537.000000	8.773664
538.000000	8.985595
539.000000	9.169223
540.000000	9.346827
541.000000	9.528289
542.000000	9.671101
543.000000	9.816153
544.000000	9.947657
545.000000	10.056648
546.000000	10.198425
547.000000	10.342712
548.000000	10.438197
549.000000	10.558608
550.000000	10.677200
551.000000	10.805659
552.000000	10.917084
553.000000	11.047790
554.000000	11.167284
555.000000	11.269522
556.000000	11.360024
557.000000	11.466153
558.000000	11.557685
559.000000	11.650232
560.000000	11.741590
561.000000	11.816220
562.000000	11.889183
563.000000	11.977958
564.000000	12.026252
565.000000	12.090423
566.000000	12.147145
567.000000	12.172991
568.000000	12.232925
569.000000	12.282550
570.000000	12.304318
571.000000	12.329338
572.000000	12.379195
573.000000	12.404817
574.000000	12.419448
575.000000	12.450210
576.000000	12.468407
577.000000	12.469400
578.000000	12.504146
579.000000	12.513749
580.000000	12.511603
581.000000	12.485309
582.000000	12.490816
583.000000	12.477704
584.000000	12.434023
585.000000	12.390568
586.000000	12.354864
587.000000	12.303323
588.000000	12.251730
589.000000	12.160158
590.000000	12.092453
591.000000	11.992961
592.000000	11.870223
593.000000	11.738981
594.000000	11.594059
595.000000	11.419264
596.000000	11.259956
597.000000	11.088693
598.000000	10.903436
599.000000	10.702634
600.000000	10.478672
601.000000	10.237208
602.000000	10.000746
603.000000	9.759994
604.000000	9.519987
605.000000	9.286258
606.000000	9.049293
607.000000	8.837427
608.000000	8.641709
609.000000	8.466916
610.000000	8.313172
611.000000	8.170391
612.000000	8.034077
613.000000	7.903179
614.000000	7.788932
615.000000	7.672635
616.000000	7.557466
617.000000	7.457123
618.000000	7.365697
619.000000	7.281347
620.000000	7.188968
621.000000	7.105244
622.000000	7.026878
623.000000	6.948557
624.000000	6.885485
625.000000	6.833950
626.000000	6.797162
627.000000	6.775818
628.000000	6.758241
629.000000	6.772154
630.000000	6.806789
631.000000	6.859161
632.000000	6.924464
633.000000	7.006541
634.000000	7.083901
635.000000	7.172770
636.000000	7.283427
637.000000	7.387271
638.000000	7.473021
639.000000	7.551441
640.000000	7.612074
641.000000	7.654837
642.000000	7.707654
643.000000	7.731112
644.000000	7.701669
645.000000	7.670013
646.000000	7.608550
647.000000	7.528413
648.000000	7.473655
649.000000	7.415025
650.000000	7.351021
651.000000	7.291192
652.000000	7.245295
653.000000	7.199143
654.000000	7.160935
655.000000	7.133509
656.000000	7.081113
657.000000	7.055091
658.000000	7.041823
659.000000	7.020739
660.000000	7.022796
661.000000	7.013540
662.000000	7.031021
663.000000	7.073521
664.000000	7.091521
665.000000	7.111918
666.000000	7.166931
667.000000	7.233534
668.000000	7.273787
669.000000	7.315201
670.000000	7.369168
671.000000	7.430718
672.000000	7.515232
673.000000	7.580377
674.000000	7.656191
675.000000	7.721148
676.000000	7.795863
677.000000	7.854833
678.000000	7.911585
679.000000	8.019870
680.000000	8.102477
681.000000	8.206022
682.000000	8.317979
683.000000	8.373375
684.000000	8.444998
685.000000	8.516869
686.000000	8.635640
687.000000	8.721407
688.000000	8.810162
689.000000	8.887622
690.000000	8.956167
691.000000	9.011713
692.000000	9.066867
693.000000	9.097814
694.000000	9.143193
695.000000	9.208220
696.000000	9.268304
697.000000	9.273555
698.000000	9.318069
699.000000	9.382627
700.000000	9.402225
701.000000	9.466152
702.000000	9.561707
703.000000	9.628556
704.000000	9.690932
705.000000	9.793897
706.000000	9.862736
707.000000	9.940501
708.000000	10.015060
709.000000	10.090201
710.000000	10.178784
711.000000	10.282299
712.000000	10.333313
713.000000	10.379976
714.000000	10.482609
715.000000	10.565745
716.000000	10.628013
717.000000	10.717646
718.000000	10.763499
719.000000	10.877815
720.000000	10.967560
721.000000	11.059346
722.000000	11.095002
723.000000	11.184345
724.000000	11.304293
725.000000	11.387417
726.000000	11.456167
727.000000	11.485972
728.000000	11.604347
729.000000	11.699558
730.000000	11.730497
731.000000	11.832673
732.000000	12.002790
733.000000	12.034103
734.000000	12.071277
735.000000	12.148246
736.000000	12.240092
737.000000	12.357299
738.000000	12.381007
739.000000	12.445423
740.000000	12.471894
741.000000	12.549023
742.000000	12.614821
743.000000	12.633155
744.000000	12.690854
745.000000	12.758610
746.000000	12.776567
747.000000	12.882797
748.000000	12.907984
749.000000	12.991275
750.000000	13.012464
751.000000	12.954312
752.000000	13.117928
753.000000	13.185861
754.000000	13.286739
755.000000	13.364251
756.000000	13.431502
757.000000	13.483065
758.000000	13.519125
759.000000	13.611947
760.000000	13.723162
761.000000	13.782572
762.000000	13.848929
763.000000	13.855924
764.000000	13.928278
765.000000	14.001357
766.000000	14.034058
767.000000	14.040929
768.000000	14.157330
769.000000	14.131413
770.000000	14.137477
771.000000	14.259661
772.000000	14.193750
773.000000	14.241371
774.000000	14.319338
775.000000	14.428078
776.000000	14.524601
777.000000	14.533252
778.000000	14.528003
779.000000	14.565610
780.000000	14.618636
781.000000	14.713291
782.000000	14.732136
783.000000	14.740787
784.000000	14.790781
785.000000	14.791379
786.000000	14.843410
787.000000	14.875097
788.000000	14.952360
789.000000	14.947834
790.000000	14.840949
791.000000	14.839279
792.000000	14.949610
793.000000	14.936578
794.000000	14.821949
795.000000	14.844704
796.000000	14.922222
797.000000	14.876626
798.000000	14.886199
799.000000	14.834124
800.000000	14.739376
801.000000	14.808682
802.000000	14.779484
803.000000	14.745461
804.000000	14.675416
805.000000	14.696368
806.000000	14.675505
807.000000	14.554272
808.000000	14.625594
809.000000	14.603347
810.000000	14.489444
811.000000	14.545683
812.000000	14.497196
813.000000	14.416926
814.000000	14.445928
815.000000	14.288217
816.000000	14.158616
817.000000	14.199478
818.000000	14.189952
819.000000	13.881669
820.000000	13.887524
821.000000	13.787128
822.000000	13.600374
823.000000	13.496738
824.000000	13.452187
825.000000	13.358588
826.000000	13.109383
827.000000	13.025567
828.000000	12.813421
829.000000	12.809521
830.000000	12.663298
831.000000	12.535855
832.000000	12.270864
833.000000	12.243290
834.000000	11.955346
835.000000	11.950309
836.000000	11.956003
837.000000	11.832040
838.000000	11.681456
839.000000	11.705367
840.000000	11.531825
841.000000	11.437797
842.000000	11.239384
843.000000	10.955221
844.000000	11.080906
845.000000	11.006169
846.000000	11.023909
847.000000	10.854617
848.000000	10.842127
849.000000	10.838660
850.000000	10.919780
851.000000	10.854221
852.000000	10.795594
853.000000	10.701402
854.000000	10.551587
855.000000	10.526871
856.000000	10.608248
857.000000	10.551760
858.000000	11.061737
859.000000	10.444274
860.000000	10.464529
861.000000	10.516393
862.000000	10.451477
863.000000	10.155145
864.000000	9.972860
865.000000	10.457125
866.000000	10.481935
867.000000	10.268120
868.000000	10.543796
869.000000	10.346958
870.000000	10.370765
871.000000	9.811194
872.000000	10.135800
873.000000	10.203986
874.000000	9.848907
875.000000	10.149300
876.000000	10.224194
877.000000	10.387889
878.000000	10.368605
879.000000	10.287091
880.000000	10.296275
881.000000	10.211032
882.000000	10.136752
883.000000	10.169144
884.000000	10.142529
885.000000	9.997940
886.000000	10.013773
887.000000	10.229931
888.000000	10.055048
889.000000	10.002781
890.000000	10.201662
891.000000	10.059882
892.000000	10.115038
893.000000	10.064524
894.000000	10.078553
895.000000	9.960263
896.000000	10.092148
897.000000	10.176014
898.000000	10.106693
899.000000	10.046354
900.000000	9.995438
901.000000	9.938314
902.000000	9.982743
903.000000	9.975997
904.000000	9.922375
905.000000	9.828811
906.000000	9.803872
907.000000	9.987234
908.000000	10.015662
909.000000	10.012096
910.000000	9.921277
911.000000	9.838898
912.000000	9.946872
913.000000	9.917477
914.000000	9.892531
915.000000	9.919585
916.000000	9.930030
917.000000	9.909623
918.000000	9.870173
919.000000	9.858253
920.000000	9.823116
921.000000	9.879361
922.000000	9.813406
923.000000	9.789644
924.000000	9.859901
925.000000	9.844819
926.000000	9.843838
927.000000	9.834450
928.000000	9.842804
929.000000	9.819299
930.000000	9.824656
931.000000	9.891994
932.000000	9.863213
933.000000	9.823860
934.000000	9.885560
935.000000	9.920462
936.000000	9.957878
937.000000	9.956875
938.000000	9.953032
939.000000	9.885076
940.000000	9.872304
941.000000	9.901310
942.000000	9.874359
943.000000	9.890681
944.000000	9.848517
945.000000	9.851088
946.000000	9.874994
947.000000	9.925219
948.000000	9.942136
949.000000	9.934147
950.000000	9.894874
951.000000	9.888117
952.000000	9.909170
953.000000	9.882551
954.000000	9.927282
955.000000	9.954756
956.000000	9.946266
957.000000	9.950050
958.000000	9.922521
959.000000	9.916143
960.000000	9.926020
961.000000	9.931720
962.000000	9.949266
963.000000	9.951728
964.000000	9.931681
965.000000	9.902859
966.000000	9.918134
967.000000	9.922642
968.000000	9.905408
969.000000	9.910751
970.000000	9.945640
971.000000	9.928110
972.000000	9.924215
973.000000	9.881824
974.000000	9.917392
975.000000	9.913566
976.000000	9.891782
977.000000	9.874247
978.000000	9.862224
979.000000	9.889435
980.000000	9.877867
981.000000	9.866379
982.000000	9.879626
983.000000	9.914438
984.000000	9.885340
985.000000	9.885151
986.000000	9.912011
987.000000	9.907443
988.000000	9.904874
989.000000	9.882046
990.000000	9.884831
991.000000	9.871675
992.000000	9.876978
993.000000	9.878910
994.000000	9.869465
995.000000	9.889437
996.000000	9.877168
997.000000	9.898208
998.000000	9.843995
999.000000	9.837611
1000.000000	9.838702
1001.000000	9.834738
1002.000000	9.810490
1003.000000	9.815884
1004.000000	9.838000
1005.000000	9.834582
1006.000000	9.817357
1007.000000	9.797052
1008.000000	9.789642
1009.000000	9.812543
1010.000000	9.792124
1011.000000	9.785745
1012.000000	9.790704
1013.000000	9.772266
1014.000000	9.772999
1015.000000	9.763795
1016.000000	9.761534
1017.000000	9.736723
1018.000000	9.734323
1019.000000	9.732557
1020.000000	9.735533
1021.000000	9.738410
1022.000000	9.731878
1023.000000	9.727913
1024.000000	9.736920
1025.000000	9.717736
1026.000000	9.717220
1027.000000	9.710032
1028.000000	9.694397
1029.000000	9.674542
1030.000000	9.647830
1031.000000	9.670425
1032.000000	9.677841
1033.000000	9.669352
1034.000000	9.669143
1035.000000	9.666097
1036.000000	9.656985
1037.000000	9.634891
1038.000000	9.639914
1039.000000	9.667072
1040.000000	9.648169
1041.000000	9.666718
1042.000000	9.643474
1043.000000	9.681079
1044.000000	9.642920
1045.000000	9.654133
1046.000000	9.689654
1047.000000	9.652981
1048.000000	9.655486
1049.000000	9.634185
1050.000000	9.620103
1051.000000	9.624770
1052.000000	9.613698
1053.000000	9.632645
1054.000000	9.599364
1055.000000	9.621384
1056.000000	9.629715
1057.000000	9.572845
1058.000000	9.566179
1059.000000	9.578320
1060.000000	9.562596
1061.000000	9.559951
1062.000000	9.563783
1063.000000	9.556417
1064.000000	9.588106
1065.000000	9.553435
1066.000000	9.560435
1067.000000	9.549086
1068.000000	9.538948
1069.000000	9.554590
1070.000000	9.538182
1071.000000	9.539239
1072.000000	9.528483
1073.000000	9.538849
1074.000000	9.533409
1075.000000	9.538034
1076.000000	9.527281
1077.000000	9.550278
1078.000000	9.521683
1079.000000	9.538460
1080.000000	9.542613
1081.000000	9.529322
1082.000000	9.554714
1083.000000	9.560780
1084.000000	9.567374
1085.000000	9.554284
1086.000000	9.562985
1087.000000	9.588906
1088.000000	9.559427
1089.000000	9.585019
1090.000000	9.588593
1091.000000	9.588458
1092.000000	9.595072
1093.000000	9.577709
1094.000000	9.574767
1095.000000	9.591653
1096.000000	9.572465
1097.000000	9.577328
1098.000000	9.573954
1099.000000	9.570128
1100.000000	9.575904
1101.000000	9.576594
1102.000000	9.557388
1103.000000	9.557734
1104.000000	9.560095
1105.000000	9.559330
1106.000000	9.548054
1107.000000	9.542116
1108.000000	9.546318
1109.000000	9.542080
1110.000000	9.529219
1111.000000	9.517781
1112.000000	9.528295
1113.000000	9.535952
1114.000000	9.525477
1115.000000	9.531863
1116.000000	9.507955
1117.000000	9.525626
1118.000000	9.529511
1119.000000	9.521445
1120.000000	9.516006
1121.000000	9.503631
1122.000000	9.497213
1123.000000	9.482665
1124.000000	9.485914
1125.000000	9.479722
1126.000000	9.472480
1127.000000	9.462069
1128.000000	9.438842
1129.000000	9.445611
1130.000000	9.436450
1131.000000	9.416039
1132.000000	9.378253
1133.000000	9.344849
1134.000000	9.335344
1135.000000	9.333561
1136.000000	9.324336
1137.000000	9.294807
1138.000000	9.274962
1139.000000	9.254301
1140.000000	9.243474
1141.000000	9.238692
1142.000000	9.229483
1143.000000	9.206476
1144.000000	9.196760
1145.000000	9.182247
1146.000000	9.170940
1147.000000	9.158331
1148.000000	9.153308
1149.000000	9.146617
1150.000000	9.122800
1151.000000	9.114578
1152.000000	9.114224
1153.000000	9.108550
1154.000000	9.093370
1155.000000	9.086829
1156.000000	9.063395
1157.000000	9.041918
1158.000000	9.016241
1159.000000	8.986855
1160.000000	8.978431
1161.000000	8.946909
1162.000000	8.902985
1163.000000	8.883754
1164.000000	8.863278
1165.000000	8.831546
1166.000000	8.802384
1167.000000	8.771072
1168.000000	8.734802
1169.000000	8.701739
1170.000000	8.684907
1171.000000	8.663338
1172.000000	8.643681
1173.000000	8.617340
1174.000000	8.591587
1175.000000	8.574093
1176.000000	8.548245
1177.000000	8.534755
1178.000000	8.525308
1179.000000	8.506814
1180.000000	8.482663
1181.000000	8.465048
1182.000000	8.454913
1183.000000	8.436333
1184.000000	8.416218
1185.000000	8.396521
1186.000000	8.392342
1187.000000	8.397545
1188.000000	8.388377
1189.000000	8.392404
1190.000000	8.409579
1191.000000	8.416482
1192.000000	8.431169
1193.000000	8.451781
1194.000000	8.459329
1195.000000	8.461967
1196.000000	8.466589
1197.000000	8.468768
1198.000000	8.484434
1199.000000	8.503409
1200.000000	8.511616
1201.000000	8.536655
1202.000000	8.564114
1203.000000	8.578929
1204.000000	8.592281
1205.000000	8.604860
1206.000000	8.616598
1207.000000	8.634251
1208.000000	8.653727
1209.000000	8.665503
1210.000000	8.680385
1211.000000	8.693676
1212.000000	8.700599
1213.000000	8.711856
1214.000000	8.719133
1215.000000	8.735413
1216.000000	8.764881
1217.000000	8.777284
1218.000000	8.795149
1219.000000	8.808064
1220.000000	8.816934
1221.000000	8.813459
1222.000000	8.811545
1223.000000	8.833821
1224.000000	8.851277
1225.000000	8.851590
1226.000000	8.857363
1227.000000	8.862420
1228.000000	8.862340
1229.000000	8.855679
1230.000000	8.856514
1231.000000	8.867787
1232.000000	8.872756
1233.000000	8.866369
1234.000000	8.872719
1235.000000	8.885131
1236.000000	8.888072
1237.000000	8.896348
1238.000000	8.898299
1239.000000	8.893712
1240.000000	8.898554
1241.000000	8.909620
1242.000000	8.914681
1243.000000	8.914185
1244.000000	8.926181
1245.000000	8.930952
1246.000000	8.938237
1247.000000	8.940558
1248.000000	8.949577
1249.000000	8.968449
1250.000000	8.968411
1251.000000	8.974589
1252.000000	8.967297
1253.000000	8.975386
1254.000000	8.986185
1255.000000	8.992073
1256.000000	9.000978
1257.000000	9.011098
1258.000000	8.995578
1259.000000	8.999437
1260.000000	9.008676
1261.000000	8.999430
1262.000000	8.994605
1263.000000	9.005270
1264.000000	9.013946
1265.000000	9.007661
1266.000000	8.999759
1267.000000	8.998595
1268.000000	8.993760
1269.000000	8.988517
1270.000000	8.981366
1271.000000	8.972026
1272.000000	8.981240
1273.000000	8.977162
1274.000000	8.981595
1275.000000	8.988786
1276.000000	8.986017
1277.000000	8.983443
1278.000000	8.983348
1279.000000	8.989769
1280.000000	8.995219
1281.000000	9.011688
1282.000000	9.017371
1283.000000	9.022259
1284.000000	9.024030
1285.000000	9.024414
1286.000000	9.025598
1287.000000	9.041005
1288.000000	9.052323
1289.000000	9.050570
1290.000000	9.050884
1291.000000	9.055798
1292.000000	9.059496
1293.000000	9.067267
1294.000000	9.076315
1295.000000	9.073248
1296.000000	9.073896
1297.000000	9.083728
1298.000000	9.089726
1299.000000	9.081788
1300.000000	9.082541
1301.000000	9.090800
1302.000000	9.083329
1303.000000	9.083096
1304.000000	9.094012
1305.000000	9.081062
1306.000000	9.071420
1307.000000	9.067435
1308.000000	9.053047
1309.000000	9.056229
1310.000000	9.056025
1311.000000	9.059342
1312.000000	9.046685
1313.000000	9.040097
1314.000000	9.030283
1315.000000	9.023352
1316.000000	9.013731
1317.000000	9.002090
1318.000000	8.994956
1319.000000	8.973006
1320.000000	8.968561
1321.000000	8.960409
1322.000000	8.945641
1323.000000	8.956261
1324.000000	8.933987
1325.000000	8.912737
1326.000000	8.904024
1327.000000	8.887236
1328.000000	8.878252
1329.000000	8.863314
1330.000000	8.855758
1331.000000	8.849643
1332.000000	8.826078
1333.000000	8.808757
1334.000000	8.784476
1335.000000	8.767777
1336.000000	8.756611
1337.000000	8.720979
1338.000000	8.689385
1339.000000	8.670261
1340.000000	8.662942
1341.000000	8.632109
1342.000000	8.616909
1343.000000	8.581258
1344.000000	8.566228
1345.000000	8.538564
1346.000000	8.496316
1347.000000	8.436948
1348.000000	8.421131
1349.000000	8.404416
1350.000000	8.365166
1351.000000	8.347209
1352.000000	8.312730
1353.000000	8.268241
1354.000000	8.239932
1355.000000	8.268058
1356.000000	8.243510
1357.000000	8.200713
1358.000000	8.187145
1359.000000	8.182131
1360.000000	8.147886
1361.000000	8.108718
1362.000000	8.177285
1363.000000	8.165476
1364.000000	8.079586
1365.000000	8.124440
1366.000000	8.100581
1367.000000	8.011738
1368.000000	8.046562
1369.000000	8.057269
1370.000000	7.976773
1371.000000	7.963469
1372.000000	7.954306
1373.000000	7.935195
1374.000000	7.889114
1375.000000	7.876560
1376.000000	7.863756
1377.000000	7.855443
1378.000000	7.837489
1379.000000	7.809061
1380.000000	7.777121
1381.000000	7.781219
1382.000000	7.752967
1383.000000	7.763124
1384.000000	7.705190
1385.000000	7.649228
1386.000000	7.607022
1387.000000	7.538892
1388.000000	7.520770
1389.000000	7.486393
1390.000000	7.403722
1391.000000	7.341649
1392.000000	7.329075
1393.000000	7.298328
1394.000000	7.196458
1395.000000	7.148205
1396.000000	7.169476
1397.000000	7.106177
1398.000000	7.004292
1399.000000	6.939579
1400.000000	6.922762
1401.000000	6.917620
1402.000000	6.831431
1403.000000	6.737144
1404.000000	6.673862
1405.000000	6.641041
1406.000000	6.571857
1407.000000	6.515797
1408.000000	6.469359
1409.000000	6.411293
1410.000000	6.376017
1411.000000	6.294255
1412.000000	6.219940
1413.000000	6.144933
1414.000000	6.108614
1415.000000	6.109139
1416.000000	6.031290
1417.000000	5.969029
1418.000000	5.920306
1419.000000	5.895823
1420.000000	5.878495
1421.000000	5.825858
1422.000000	5.752271
1423.000000	5.720677
1424.000000	5.705339
1425.000000	5.675449
1426.000000	5.635047
1427.000000	5.597141
1428.000000	5.583268
1429.000000	5.557129
1430.000000	5.515645
1431.000000	5.488301
1432.000000	5.490450
1433.000000	5.477485
1434.000000	5.443311
1435.000000	5.419806
1436.000000	5.395531
1437.000000	5.377057
1438.000000	5.361227
1439.000000	5.349821
1440.000000	5.347264
1441.000000	5.321866
1442.000000	5.303684
1443.000000	5.292706
1444.000000	5.279843
1445.000000	5.276782
1446.000000	5.289525
1447.000000	5.271990
1448.000000	5.261996
1449.000000	5.238090
1450.000000	5.236419
1451.000000	5.233839
1452.000000	5.224584
1453.000000	5.206705
1454.000000	5.185226
1455.000000	5.171054
1456.000000	5.167374
1457.000000	5.168299
1458.000000	5.159747
1459.000000	5.148618
1460.000000	5.136361
1461.000000	5.135393
1462.000000	5.123068
1463.000000	5.100224
1464.000000	5.100964
1465.000000	5.098002
1466.000000	5.096642
1467.000000	5.093188
1468.000000	5.072627
1469.000000	5.052103
1470.000000	5.043586
1471.000000	5.051555
1472.000000	5.045417
1473.000000	5.027638
1474.000000	5.009710
1475.000000	5.000982
1476.000000	4.991479
1477.000000	4.987499
1478.000000	4.985651
1479.000000	4.988505
1480.000000	4.980420
1481.000000	4.966816
1482.000000	4.958112
1483.000000	4.946420
1484.000000	4.943978
1485.000000	4.937327
1486.000000	4.926507
1487.000000	4.917175
1488.000000	4.912340
1489.000000	4.901437
1490.000000	4.889079
1491.000000	4.893365
1492.000000	4.895501
1493.000000	4.877674
1494.000000	4.877609
1495.000000	4.868093
1496.000000	4.854490
1497.000000	4.848599
1498.000000	4.855319
1499.000000	4.858646
1500.000000	4.863439
1501.000000	4.870774
1502.000000	4.863025
1503.000000	4.860388
1504.000000	4.873455
1505.000000	4.885035
1506.000000	4.888030
1507.000000	4.879624
1508.000000	4.874763
1509.000000	4.895121
1510.000000	4.902767
1511.000000	4.907763
1512.000000	4.914942
1513.000000	4.924617
1514.000000	4.926752
1515.000000	4.928863
1516.000000	4.957722
1517.000000	4.961079
1518.000000	4.963012
1519.000000	4.975345
1520.000000	4.984391
1521.000000	4.990116
1522.000000	4.996706
1523.000000	5.001389
1524.000000	5.009370
1525.000000	5.018154
1526.000000	5.026273
1527.000000	5.022204
1528.000000	5.044348
1529.000000	5.058088
1530.000000	5.044169
1531.000000	5.058417
1532.000000	5.067826
1533.000000	5.079256
1534.000000	5.088975
1535.000000	5.097362
1536.000000	5.093638
1537.000000	5.122554
1538.000000	5.133702
1539.000000	5.136903
1540.000000	5.149123
1541.000000	5.151145
1542.000000	5.144005
1543.000000	5.167602
1544.000000	5.178031
1545.000000	5.189432
1546.000000	5.192384
1547.000000	5.186427
1548.000000	5.200856
1549.000000	5.207292
1550.000000	5.231762
1551.000000	5.252149
1552.000000	5.255972
1553.000000	5.269662
1554.000000	5.286984
1555.000000	5.299384
1556.000000	5.304224
1557.000000	5.329822
1558.000000	5.321856
1559.000000	5.324983
1560.000000	5.332066
1561.000000	5.341293
1562.000000	5.337600
1563.000000	5.334749
1564.000000	5.322970
1565.000000	5.334865
1566.000000	5.349519
1567.000000	5.348005
1568.000000	5.346702
1569.000000	5.346415
1570.000000	5.334604
1571.000000	5.324879
1572.000000	5.330957
1573.000000	5.326408
1574.000000	5.310798
1575.000000	5.317654
1576.000000	5.331130
1577.000000	5.323618
1578.000000	5.313726
1579.000000	5.325492
1580.000000	5.335021
1581.000000	5.321190
1582.000000	5.332942
1583.000000	5.345099
1584.000000	5.331592
1585.000000	5.344887
1586.000000	5.328488
1587.000000	5.344637
1588.000000	5.344640
1589.000000	5.354371
1590.000000	5.353954
1591.000000	5.358627
1592.000000	5.364103
1593.000000	5.389579
1594.000000	5.381298
1595.000000	5.384399
1596.000000	5.403864
1597.000000	5.411466
1598.000000	5.427988
1599.000000	5.416105
1600.000000	5.421250
1601.000000	5.434365
1602.000000	5.434309
1603.000000	5.458922
1604.000000	5.434160
1605.000000	5.459554
1606.000000	5.461609
1607.000000	5.481103
1608.000000	5.480454
1609.000000	5.475731
1610.000000	5.490981
1611.000000	5.484823
1612.000000	5.516819
1613.000000	5.510440
1614.000000	5.524534
1615.000000	5.541369
1616.000000	5.522827
1617.000000	5.517102
1618.000000	5.542073
1619.000000	5.543121
1620.000000	5.541330
1621.000000	5.558338
1622.000000	5.530689
1623.000000	5.551978
1624.000000	5.560205
1625.000000	5.561002
1626.000000	5.564404
1627.000000	5.593865
1628.000000	5.587541
1629.000000	5.587620
1630.000000	5.600847
1631.000000	5.595507
1632.000000	5.601766
1633.000000	5.608069
1634.000000	5.607151
1635.000000	5.606228
1636.000000	5.636374
1637.000000	5.631273
1638.000000	5.643130
1639.000000	5.640835
1640.000000	5.659019
1641.000000	5.671886
1642.000000	5.659459
1643.000000	5.664840
1644.000000	5.660300
1645.000000	5.681908
1646.000000	5.687140
1647.000000	5.687283
1648.000000	5.673439
1649.000000	5.686933
1650.000000	5.693198
1651.000000	5.697444
1652.000000	5.686747
1653.000000	5.686129
1654.000000	5.673776
1655.000000	5.677472
1656.000000	5.687000
1657.000000	5.689099
1658.000000	5.663989
1659.000000	5.654847
1660.000000	5.659481
1661.000000	5.635601
1662.000000	5.614118
1663.000000	5.604337
1664.000000	5.565868
1665.000000	5.543874
1666.000000	5.510163
1667.000000	5.501230
1668.000000	5.466939
1669.000000	5.444685
1670.000000	5.438218
1671.000000	5.417936
1672.000000	5.393742
1673.000000	5.354925
1674.000000	5.316346
1675.000000	5.296451
1676.000000	5.263524
1677.000000	5.245965
1678.000000	5.224204
1679.000000	5.205537
1680.000000	5.177833
1681.000000	5.151468
1682.000000	5.123661
1683.000000	5.085985
1684.000000	5.059538
1685.000000	5.039856
1686.000000	5.010600
1687.000000	4.975934
1688.000000	4.963536
1689.000000	4.945438
1690.000000	4.938079
1691.000000	4.949943
1692.000000	4.959012
1693.000000	4.955330
1694.000000	4.975110
1695.000000	4.996210
1696.000000	4.977885
1697.000000	4.980229
1698.000000	4.989315
1699.000000	4.964537
1700.000000	4.966262
1701.000000	4.976696
1702.000000	4.970123
1703.000000	4.980820
1704.000000	4.964496
1705.000000	4.946238
1706.000000	4.937719
1707.000000	4.942079
1708.000000	4.925940
1709.000000	4.919090
1710.000000	4.899564
1711.000000	4.889476
1712.000000	4.861171
1713.000000	4.830038
1714.000000	4.829881
1715.000000	4.812294
1716.000000	4.781008
1717.000000	4.762209
1718.000000	4.724168
1719.000000	4.681648
1720.000000	4.644030
1721.000000	4.617761
1722.000000	4.601583
1723.000000	4.582540
1724.000000	4.562701
1725.000000	4.563540
1726.000000	4.554890
1727.000000	4.540736
1728.000000	4.539430
1729.000000	4.556329
1730.000000	4.564608
1731.000000	4.551154
1732.000000	4.554229
1733.000000	4.557677
1734.000000	4.565701
1735.000000	4.573127
1736.000000	4.585481
1737.000000	4.576677
1738.000000	4.581782
1739.000000	4.593969
1740.000000	4.597600
1741.000000	4.629234
1742.000000	4.627547
1743.000000	4.619944
1744.000000	4.638642
1745.000000	4.654101
1746.000000	4.666490
1747.000000	4.677794
1748.000000	4.690033
1749.000000	4.694335
1750.000000	4.698463
1751.000000	4.705573
1752.000000	4.712401
1753.000000	4.716859
1754.000000	4.734981
1755.000000	4.737100
1756.000000	4.741142
1757.000000	4.745273
1758.000000	4.749505
1759.000000	4.764138
1760.000000	4.784375
1761.000000	4.791553
1762.000000	4.801763
1763.000000	4.803408
1764.000000	4.797524
1765.000000	4.806728
1766.000000	4.817826
1767.000000	4.826534
1768.000000	4.825709
1769.000000	4.835879
1770.000000	4.867649
1771.000000	4.882152
1772.000000	4.888232
1773.000000	4.906450
1774.000000	4.913630
1775.000000	4.919100
1776.000000	4.920735
1777.000000	4.941386
1778.000000	4.945847
1779.000000	4.934133
1780.000000	4.957805
1781.000000	4.996458
1782.000000	4.991917
1783.000000	4.990325
1784.000000	5.003268
1785.000000	4.994002
1786.000000	5.000111
1787.000000	5.017088
1788.000000	5.013234
1789.000000	5.013637
1790.000000	5.040046
1791.000000	5.056524
1792.000000	5.053573
1793.000000	5.052369
1794.000000	5.059691
1795.000000	5.062604
1796.000000	5.062327
1797.000000	5.064436
1798.000000	5.067899
1799.000000	5.060668
1800.000000	5.083155
1801.000000	5.111036
1802.000000	5.121446
1803.000000	5.102307
1804.000000	5.099790
1805.000000	5.095658
1806.000000	5.130049
1807.000000	5.107836
1808.000000	5.124427
1809.000000	5.113413
1810.000000	5.097462
1811.000000	5.130854
1812.000000	5.148026
1813.000000	5.152003
1814.000000	5.132366
1815.000000	5.103616
1816.000000	5.132961
1817.000000	5.147768
1818.000000	5.161269
1819.000000	5.107554
1820.000000	5.081750
1821.000000	5.136081
1822.000000	5.167979
1823.000000	5.141053
1824.000000	5.138976
1825.000000	5.120736
1826.000000	5.156246
1827.000000	5.170950
1828.000000	5.158240
1829.000000	5.159157
1830.000000	5.135257
1831.000000	5.148987
1832.000000	5.166397
1833.000000	5.142610
1834.000000	5.117690
1835.000000	5.148304
1836.000000	5.138634
1837.000000	5.171156
1838.000000	5.210701
1839.000000	5.164901
1840.000000	5.173778
1841.000000	5.167306
1842.000000	5.201345
1843.000000	5.223830
1844.000000	5.201572
1845.000000	5.202432
1846.000000	5.132815
1847.000000	5.132682
1848.000000	5.237463
1849.000000	5.246352
1850.000000	5.202067
1851.000000	5.210838
1852.000000	5.138593
1853.000000	5.160451
1854.000000	5.194612
1855.000000	5.167275
1856.000000	5.136070
1857.000000	5.222764
1858.000000	5.130452
1859.000000	5.059526
1860.000000	5.120859
1861.000000	5.109522
1862.000000	5.136249
1863.000000	5.021378
1864.000000	5.085041
1865.000000	5.104081
1866.000000	5.037456
1867.000000	4.983440
1868.000000	5.021464
1869.000000	4.921308
1870.000000	4.908548
1871.000000	4.967856
1872.000000	4.934284
1873.000000	4.886507
1874.000000	4.895172
1875.000000	4.905348
1876.000000	4.735759
1877.000000	4.784445
1878.000000	4.728330
1879.000000	4.691421
1880.000000	4.608492
1881.000000	4.589729
1882.000000	4.555369
1883.000000	4.510732
1884.000000	4.452747
1885.000000	4.390560
1886.000000	4.341970
1887.000000	4.286037
1888.000000	4.224382
1889.000000	4.115700
1890.000000	4.034167
1891.000000	4.028431
1892.000000	3.983446
1893.000000	3.806292
1894.000000	3.781365
1895.000000	3.703937
1896.000000	3.625763
1897.000000	3.564655
1898.000000	3.491948
1899.000000	3.366945
1900.000000	3.420780
1901.000000	3.305293
1902.000000	3.207677
1903.000000	3.176363
1904.000000	3.121740
1905.000000	3.000856
1906.000000	2.973985
1907.000000	2.955429
1908.000000	2.885081
1909.000000	2.795350
1910.000000	2.770803
1911.000000	2.696513
1912.000000	2.727632
1913.000000	2.637291
1914.000000	2.609726
1915.000000	2.597008
1916.000000	2.581273
1917.000000	2.578720
1918.000000	2.525337
1919.000000	2.434958
1920.000000	2.477453
1921.000000	2.522214
1922.000000	2.448650
1923.000000	2.345297
1924.000000	2.385367
1925.000000	2.367815
1926.000000	2.335672
1927.000000	2.328197
1928.000000	2.320198
1929.000000	2.325223
1930.000000	2.368351
1931.000000	2.344109
1932.000000	2.332041
1933.000000	2.317217
1934.000000	2.321735
1935.000000	2.300448
1936.000000	2.299565
1937.000000	2.305987
1938.000000	2.306024
1939.000000	2.331370
1940.000000	2.349927
1941.000000	2.333544
1942.000000	2.342336
1943.000000	2.376276
1944.000000	2.402230
1945.000000	2.394986
1946.000000	2.372429
1947.000000	2.388207
1948.000000	2.434732
1949.000000	2.430015
1950.000000	2.419318
1951.000000	2.456251
1952.000000	2.446025
1953.000000	2.482114
1954.000000	2.490578
1955.000000	2.473051
1956.000000	2.483980
1957.000000	2.546869
1958.000000	2.580153
1959.000000	2.604583
1960.000000	2.560149
1961.000000	2.554508
1962.000000	2.623340
1963.000000	2.626587
1964.000000	2.639344
1965.000000	2.660577
1966.000000	2.666576
1967.000000	2.697282
1968.000000	2.700773
1969.000000	2.678253
1970.000000	2.674799
1971.000000	2.681292
1972.000000	2.714465
1973.000000	2.753820
1974.000000	2.754233
1975.000000	2.731300
1976.000000	2.758242
1977.000000	2.759008
1978.000000	2.756595
1979.000000	2.779335
1980.000000	2.817058
1981.000000	2.852114
1982.000000	2.834009
1983.000000	2.847230
1984.000000	2.885757
1985.000000	2.892961
1986.000000	2.891875
1987.000000	2.919069
1988.000000	2.912085
1989.000000	2.893587
1990.000000	2.906781
1991.000000	2.910623
1992.000000	2.937079
1993.000000	2.937843
1994.000000	2.918358
1995.000000	2.987734
1996.000000	3.033374
1997.000000	2.998289
1998.000000	2.993727
1999.000000	3.004904
2000.000000	3.031294
2001.000000	3.004826
2002.000000	2.973271
2003.000000	3.012472
2004.000000	3.050826
2005.000000	3.038792
2006.000000	3.010500
2007.000000	3.009138
2008.000000	3.010773
2009.000000	3.041736
2010.000000	3.095859
2011.000000	3.076411
2012.000000	2.996649
2013.000000	2.958254
2014.000000	3.011847
2015.000000	3.020080
2016.000000	3.022410
2017.000000	3.005900
2018.000000	3.010251
2019.000000	3.040927
2020.000000	3.030414
2021.000000	2.968657
2022.000000	2.927798
2023.000000	2.965864
2024.000000	3.016499
2025.000000	2.994602
2026.000000	2.906576
2027.000000	2.882279
2028.000000	2.888708
2029.000000	2.887601
2030.000000	2.851355
2031.000000	2.797366
2032.000000	2.852725
2033.000000	2.856290
2034.000000	2.807243
2035.000000	2.794427
2036.000000	2.789399
2037.000000	2.788390
2038.000000	2.780751
2039.000000	2.776941
2040.000000	2.644799
2041.000000	2.667268
2042.000000	2.629473
2043.000000	2.596368
2044.000000	2.647897
2045.000000	2.648516
2046.000000	2.599492
2047.000000	2.592222
2048.000000	2.581463
2049.000000	2.540546
2050.000000	2.503357
2051.000000	2.565634
2052.000000	2.583262
2053.000000	2.440896
2054.000000	2.402975
2055.000000	2.533485
2056.000000	2.487979
2057.000000	2.493157
2058.000000	2.480771
2059.000000	2.441027
2060.000000	2.449665
2061.000000	2.495493
2062.000000	2.528418
2063.000000	2.550684
2064.000000	2.555984
2065.000000	2.474356
2066.000000	2.539559
2067.000000	2.623195
2068.000000	2.698167
2069.000000	2.615644
2070.000000	2.619391
2071.000000	2.610847
2072.000000	2.586425
2073.000000	2.562893
2074.000000	2.703736
2075.000000	2.676646
2076.000000	2.669695
2077.000000	2.676563
2078.000000	2.698820
2079.000000	2.745889
2080.000000	2.728361
2081.000000	2.806818
2082.000000	2.828062
2083.000000	2.817890
2084.000000	2.740478
2085.000000	2.718480
2086.000000	2.742306
2087.000000	2.698570
2088.000000	2.746340
2089.000000	2.822801
2090.000000	2.806772
2091.000000	2.707916
2092.000000	2.697191
2093.000000	2.757368
2094.000000	2.707143
2095.000000	2.670115
2096.000000	2.915527
2097.000000	2.891244
2098.000000	2.756103
2099.000000	2.669319
2100.000000	2.755828
2101.000000	2.763648
2102.000000	2.862198
2103.000000	2.751022
2104.000000	2.688876
2105.000000	2.642308
2106.000000	2.671161
2107.000000	2.939216
2108.000000	2.826200
2109.000000	2.729077
2110.000000	2.821164
2111.000000	2.720380
2112.000000	2.793860
2113.000000	2.853043
2114.000000	2.815376
2115.000000	2.784033
2116.000000	2.646953
2117.000000	2.756071
2118.000000	2.729774
2119.000000	2.884863
2120.000000	2.785503
2121.000000	2.850820
2122.000000	2.858517
2123.000000	2.735155
2124.000000	2.753887
2125.000000	2.601726
2126.000000	2.665552
2127.000000	2.676032
2128.000000	2.824855
2129.000000	2.684870
2130.000000	3.003815
2131.000000	2.694690
2132.000000	2.721640
2133.000000	2.627388
2134.000000	2.775127
2135.000000	2.504884
2136.000000	2.515624
2137.000000	2.651117
2138.000000	2.504356
2139.000000	2.698407
2140.000000	2.433596
2141.000000	2.752703
2142.000000	2.536182
2143.000000	2.522940
2144.000000	2.525711
2145.000000	2.357032
2146.000000	2.629699
2147.000000	2.384346
2148.000000	2.538811
2149.000000	2.241021
2150.000000	2.577588
2151.000000	2.545074
2152.000000	2.685940
2153.000000	2.340450
2154.000000	2.366274
2155.000000	2.333329
2156.000000	2.465731
2157.000000	2.297100
2158.000000	2.508235
2159.000000	2.320948
2160.000000	2.363558
2161.000000	2.510399
2162.000000	2.408925
2163.000000	2.349705
2164.000000	2.377369
2165.000000	2.506112
2166.000000	2.459299
2167.000000	2.489264
2168.000000	2.213784
2169.000000	2.389870
2170.000000	2.335563
2171.000000	2.230120
2172.000000	2.382864
2173.000000	2.331269
2174.000000	2.315257
2175.000000	2.268629
2176.000000	2.389444
2177.000000	2.402180
2178.000000	2.378923
2179.000000	2.341364
2180.000000	2.433390
2181.000000	2.247609
2182.000000	2.246267
2183.000000	2.357723
2184.000000	2.282961
2185.000000	2.456914
2186.000000	2.110481
2187.000000	2.253333
2188.000000	2.192416
2189.000000	2.230992
2190.000000	2.153650
2191.000000	2.237079
2192.000000	2.231390
2193.000000	2.260746
2194.000000	2.219471
2195.000000	2.113257
2196.000000	2.299262
2197.000000	2.254258
2198.000000	2.197811
2199.000000	2.286062
2200.000000	2.287639
2201.000000	2.294113
2202.000000	2.233695
2203.000000	2.223109
2204.000000	2.117074
2205.000000	2.115022
2206.000000	2.548252
2207.000000	2.452787
2208.000000	2.400559
2209.000000	2.334659
2210.000000	2.384015
2211.000000	2.372198
2212.000000	2.227674
2213.000000	2.139579
2214.000000	2.366795
2215.000000	2.316127
2216.000000	2.432894
2217.000000	2.361787
2218.000000	2.436810
2219.000000	2.437506
2220.000000	2.354056
2221.000000	2.301136
2222.000000	2.398931
2223.000000	2.332013
2224.000000	2.407353
2225.000000	2.346379
2226.000000	2.251540
2227.000000	2.337941
2228.000000	2.290417
2229.000000	2.351858
2230.000000	2.297812
2231.000000	2.353570
2232.000000	2.343636
2233.000000	2.296074
2234.000000	2.319623
2235.000000	2.395492
2236.000000	2.479280
2237.000000	2.335723
2238.000000	2.235716
2239.000000	2.292318
2240.000000	2.441004
2241.000000	2.473676
2242.000000	2.394725
2243.000000	2.356835
2244.000000	2.209085
2245.000000	2.350428
2246.000000	2.309289
2247.000000	2.168273
2248.000000	2.267135
2249.000000	2.183883
2250.000000	2.120179
2251.000000	2.070067
2252.000000	1.936456
2253.000000	2.100681
2254.000000	2.094424
2255.000000	1.970595
2256.000000	1.991774
2257.000000	2.017732
2258.000000	1.995526
2259.000000	2.035825
2260.000000	1.930715
2261.000000	1.997134
2262.000000	2.232803
2263.000000	2.260396
2264.000000	2.077537
2265.000000	1.935265
2266.000000	1.883647
2267.000000	1.852512
2268.000000	1.949135
2269.000000	2.099246
2270.000000	2.091717
2271.000000	2.018716
2272.000000	1.829833
2273.000000	1.922127
2274.000000	2.050572
2275.000000	2.001395
2276.000000	2.020593
2277.000000	1.982189
2278.000000	1.989414
2279.000000	2.034461
2280.000000	2.001022
2281.000000	2.075907
2282.000000	2.040488
2283.000000	1.989166
2284.000000	2.053158
2285.000000	1.903418
2286.000000	1.868664
2287.000000	1.822914
2288.000000	1.825274
2289.000000	1.971661
2290.000000	2.037333
2291.000000	1.979347
2292.000000	1.785120
2293.000000	1.772671
2294.000000	1.903804
2295.000000	1.979703
2296.000000	1.935370
2297.000000	1.920623
2298.000000	1.885119
2299.000000	1.963702
2300.000000	2.016393
2301.000000	1.993243
2302.000000	1.779320
2303.000000	1.922409
2304.000000	2.012090
2305.000000	2.060479
2306.000000	2.155205
2307.000000	2.252860
2308.000000	2.155544
2309.000000	2.166524
2310.000000	2.164127
2311.000000	2.116634
2312.000000	2.075824
2313.000000	2.027165
2314.000000	2.093365
2315.000000	2.034798
2316.000000	2.110046
2317.000000	2.055214
2318.000000	2.039593
2319.000000	2.112156
2320.000000	2.138363
2321.000000	2.157034
2322.000000	2.215025
2323.000000	2.026807
2324.000000	2.289094
2325.000000	2.263395
2326.000000	2.093251
2327.000000	1.878217
2328.000000	1.972302
2329.000000	1.749696
2330.000000	2.088714
2331.000000	2.171741
2332.000000	2.139279
2333.000000	2.035393
2334.000000	2.027685
2335.000000	2.065642
2336.000000	2.159160
2337.000000	2.155058
2338.000000	2.078214
2339.000000	2.057887
2340.000000	2.287107
2341.000000	2.224163
2342.000000	1.960966
2343.000000	2.062726
2344.000000	2.264872
2345.000000	2.075527
2346.000000	2.363767
2347.000000	2.672569
2348.000000	2.519958
2349.000000	2.360608
2350.000000	2.340312
2351.000000	1.733843
2352.000000	2.378019
2353.000000	2.332549
2354.000000	2.132985
2355.000000	2.209615
2356.000000	2.286170
2357.000000	1.833114
2358.000000	2.130858
2359.000000	2.249322
2360.000000	2.400729
2361.000000	2.211880
2362.000000	2.696226
2363.000000	2.490087
2364.000000	2.304394
2365.000000	2.100908
2366.000000	2.166106
2367.000000	2.210617
2368.000000	2.718085
2369.000000	2.417648
2370.000000	2.527714
2371.000000	2.198186
2372.000000	2.346805
2373.000000	2.641542
2374.000000	2.145182
2375.000000	2.186575
2376.000000	1.961896
2377.000000	2.455321
2378.000000	2.687791
2379.000000	2.443705
2380.000000	2.372928
2381.000000	2.336534
2382.000000	2.709006
2383.000000	2.089485
2384.000000	2.494674
2385.000000	2.496621
2386.000000	2.368974
2387.000000	2.494284
2388.000000	2.428808
2389.000000	2.440026
2390.000000	2.314836
2391.000000	2.459294
2392.000000	2.296512
2393.000000	2.478538
2394.000000	2.420408
2395.000000	2.589800
2396.000000	2.667313
2397.000000	2.307347
2398.000000	2.870701
2399.000000	2.503806
2400.000000	2.687928
2401.000000	0.527007
2402.000000	0.521279
2403.000000	0.520431
2404.000000	0.514137
2405.000000	0.512865
2406.000000	0.514915
2407.000000	0.515481
2408.000000	0.513854
2409.000000	0.530047
2410.000000	0.539593
2411.000000	0.514067
2412.000000	0.509753
2413.000000	0.511662
2414.000000	0.515127
2415.000000	0.511309
2416.000000	0.510178
2417.000000	0.526936
2418.000000	0.522764
2419.000000	0.516471
2420.000000	0.516047
2421.000000	0.518239
2422.000000	0.519016
2423.000000	0.535633
2424.000000	0.540725
2425.000000	0.556210
2426.000000	0.573464
2427.000000	0.571201
2428.000000	0.578979
2429.000000	0.559109
2430.000000	0.555715
2431.000000	0.554442
2432.000000	0.549068
2433.000000	0.548432
2434.000000	0.531674
2435.000000	0.526158
2436.000000	0.511662
2437.000000	0.507773
2438.000000	0.509400
2439.000000	0.501409
2440.000000	0.486984
2441.000000	0.478641
2442.000000	0.475246
2443.000000	0.476590
2444.000000	0.456720
2445.000000	0.463579
2446.000000	0.454175
2447.000000	0.438548
2448.000000	0.446184
2449.000000	0.433032
2450.000000	0.421718
2451.000000	0.417405
2452.000000	0.410758
2453.000000	0.411041
2454.000000	0.441447
2455.000000	0.403970
2456.000000	0.387424
2457.000000	0.371938
2458.000000	0.367625
2459.000000	0.357584
2460.000000	0.376252
2461.000000	0.348674
2462.000000	0.351856
2463.000000	0.374130
2464.000000	0.358574
2465.000000	0.345987
2466.000000	0.328593
2467.000000	0.347543
2468.000000	0.343795
2469.000000	0.307591
2470.000000	0.330360
2471.000000	0.317137
2472.000000	0.353271
2473.000000	0.343230
2474.000000	0.291823
2475.000000	0.309783
2476.000000	0.304622
2477.000000	0.318622
2478.000000	0.318693
2479.000000	0.303561
2480.000000	0.251094
2481.000000	0.237022
2482.000000	0.344361
2483.000000	0.299530
2484.000000	0.301935
2485.000000	0.378726
2486.000000	0.286095
2487.000000	0.278812
2488.000000	0.306814
2489.000000	0.290267
2490.000000	0.338846
2491.000000	0.361049
2492.000000	0.267852
2493.000000	0.348886
2494.000000	0.255478
2495.000000	0.305046
2496.000000	0.295429
2497.000000	0.319047
2498.000000	0.370665
2499.000000	0.255619
2500.000000	0.259367
