PE UV       SUBTECH     SPECTRUM    ASCII       PEDS        4.00        
   -1
CICIMAUCR0113-6.Sample.ASC
24/04/25
11:40:20.00
24/04/25
11:40:20.00
Vinicio Soto Monge
C. kalinini
250,000000
1
Lambda 1050
1050L1511233
PerkinElmer UV WinLab 6.3.2.0749 / 2.02.05 Lambda 900 UV/VIS/NIR, Aug  7 2015 09:38:08

0
0
3350/servo 860,8/2
0
0
UV/VIS
1
1
1
DoubleDePol,CommonBeamDepol,RBeamAtt,SBeamAtt,60mm sphere, WB InGaAs Detector
0
0
0
0
Program
Program
3350/servo 860,8/2
3350/0,2 860,8/0,2
3350/0,2 860,8/0,2
0
15.00
 
 
 
0
 
860,8
319,2
860,8
Front
100
on
S:100 R:100
0
0
0
0
 
0
 
 
 
0
 
 
0
0
0
0
0
 
 
 
 
0
0


0
0
#HDR
-1
-1
#GR
nm
%R
1.0
0.0
2500,000000
-1,000000
2251
8
101,774400
5,807200
#DATA
250.000000	1.106175
251.000000	1.096487
252.000000	1.089178
253.000000	1.085807
254.000000	1.082212
255.000000	1.062682
256.000000	1.058098
257.000000	1.066925
258.000000	1.064704
259.000000	1.051063
260.000000	1.052075
261.000000	1.030649
262.000000	1.026744
263.000000	1.023524
264.000000	1.014990
265.000000	1.031364
266.000000	1.010002
267.000000	0.998274
268.000000	0.986470
269.000000	0.996672
270.000000	0.984943
271.000000	0.990481
272.000000	0.985018
273.000000	0.993577
274.000000	0.969158
275.000000	0.989803
276.000000	0.982498
277.000000	0.976246
278.000000	0.961618
279.000000	0.958214
280.000000	0.945239
281.000000	0.960327
282.000000	0.959450
283.000000	0.941410
284.000000	0.969672
285.000000	0.957194
286.000000	0.948158
287.000000	0.952508
288.000000	0.948268
289.000000	0.940980
290.000000	0.935115
291.000000	0.944312
292.000000	0.930019
293.000000	0.935491
294.000000	0.901968
295.000000	0.925336
296.000000	0.925855
297.000000	0.916821
298.000000	0.911265
299.000000	0.908853
300.000000	0.911935
301.000000	0.920115
302.000000	0.909232
303.000000	0.901246
304.000000	0.930898
305.000000	0.882420
306.000000	0.922875
307.000000	0.909926
308.000000	0.884034
309.000000	0.879598
310.000000	0.872310
311.000000	0.895173
312.000000	0.893384
313.000000	0.872946
314.000000	0.887866
315.000000	0.852277
316.000000	0.845884
317.000000	0.652250
318.000000	0.855811
319.000000	0.852699
320.000000	0.662864
321.000000	0.655606
322.000000	0.847452
323.000000	0.926316
324.000000	0.768181
325.000000	0.726334
326.000000	0.894835
327.000000	0.735346
328.000000	0.885592
329.000000	0.886383
330.000000	0.848214
331.000000	0.814781
332.000000	0.805330
333.000000	0.846840
334.000000	0.801100
335.000000	0.718763
336.000000	0.790450
337.000000	0.782398
338.000000	0.753503
339.000000	0.738590
340.000000	0.792963
341.000000	0.711775
342.000000	0.790447
343.000000	0.810264
344.000000	0.797188
345.000000	0.786195
346.000000	0.846658
347.000000	0.779241
348.000000	0.784798
349.000000	0.752911
350.000000	0.773164
351.000000	0.827547
352.000000	0.836367
353.000000	0.792361
354.000000	0.826458
355.000000	0.814799
356.000000	0.778934
357.000000	0.764906
358.000000	0.783589
359.000000	0.789033
360.000000	0.760261
361.000000	0.767767
362.000000	0.730085
363.000000	0.775581
364.000000	0.781121
365.000000	0.762400
366.000000	0.754746
367.000000	0.752881
368.000000	0.752971
369.000000	0.820386
370.000000	0.816781
371.000000	0.761072
372.000000	0.785398
373.000000	0.805961
374.000000	0.789294
375.000000	0.766129
376.000000	0.769847
377.000000	0.793438
378.000000	0.792643
379.000000	0.779907
380.000000	0.769411
381.000000	0.764915
382.000000	0.747801
383.000000	0.731227
384.000000	0.719298
385.000000	0.706662
386.000000	0.694726
387.000000	0.680371
388.000000	0.665958
389.000000	0.653730
390.000000	0.644460
391.000000	0.626561
392.000000	0.612925
393.000000	0.600442
394.000000	0.587008
395.000000	0.574831
396.000000	0.572654
397.000000	0.572299
398.000000	0.567524
399.000000	0.572803
400.000000	0.580447
401.000000	0.595423
402.000000	0.617365
403.000000	0.644276
404.000000	0.677985
405.000000	0.713691
406.000000	0.754813
407.000000	0.801020
408.000000	0.849629
409.000000	0.903665
410.000000	0.964104
411.000000	1.037244
412.000000	1.119782
413.000000	1.197022
414.000000	1.283608
415.000000	1.386722
416.000000	1.491779
417.000000	1.596059
418.000000	1.707031
419.000000	1.828813
420.000000	1.959379
421.000000	2.098599
422.000000	2.233641
423.000000	2.368959
424.000000	2.525382
425.000000	2.676906
426.000000	2.823381
427.000000	2.975626
428.000000	3.132230
429.000000	3.287794
430.000000	3.443966
431.000000	3.605533
432.000000	3.759922
433.000000	3.912649
434.000000	4.068061
435.000000	4.219327
436.000000	4.361275
437.000000	4.507069
438.000000	4.648026
439.000000	4.773552
440.000000	4.905522
441.000000	5.042496
442.000000	5.168565
443.000000	5.283414
444.000000	5.389505
445.000000	5.492706
446.000000	5.601638
447.000000	5.705629
448.000000	5.802305
449.000000	5.895714
450.000000	5.993361
451.000000	6.084744
452.000000	6.165811
453.000000	6.243189
454.000000	6.316459
455.000000	6.391171
456.000000	6.466583
457.000000	6.531298
458.000000	6.585459
459.000000	6.646587
460.000000	6.702989
461.000000	6.749614
462.000000	6.799650
463.000000	6.844331
464.000000	6.884132
465.000000	6.917245
466.000000	6.942301
467.000000	6.971540
468.000000	6.995576
469.000000	7.009509
470.000000	7.016401
471.000000	7.018451
472.000000	7.015451
473.000000	7.002594
474.000000	6.983667
475.000000	6.962836
476.000000	6.926583
477.000000	6.877455
478.000000	6.818187
479.000000	6.749960
480.000000	6.688295
481.000000	6.623701
482.000000	6.542750
483.000000	6.444443
484.000000	6.327524
485.000000	6.207678
486.000000	6.080908
487.000000	5.953536
488.000000	5.829390
489.000000	5.700975
490.000000	5.567159
491.000000	5.445941
492.000000	5.327866
493.000000	5.228108
494.000000	5.144877
495.000000	5.072156
496.000000	5.013138
497.000000	4.984656
498.000000	4.975795
499.000000	4.993450
500.000000	5.030509
501.000000	5.102614
502.000000	5.199764
503.000000	5.317064
504.000000	5.461869
505.000000	5.629053
506.000000	5.806453
507.000000	6.002676
508.000000	6.226094
509.000000	6.450166
510.000000	6.689825
511.000000	6.941614
512.000000	7.192421
513.000000	7.442876
514.000000	7.691558
515.000000	7.945513
516.000000	8.199850
517.000000	8.459783
518.000000	8.710182
519.000000	8.957396
520.000000	9.212227
521.000000	9.458754
522.000000	9.708963
523.000000	9.947449
524.000000	10.182826
525.000000	10.408295
526.000000	10.642300
527.000000	10.881633
528.000000	11.107593
529.000000	11.332810
530.000000	11.555611
531.000000	11.786372
532.000000	12.010388
533.000000	12.234958
534.000000	12.461994
535.000000	12.679771
536.000000	12.910860
537.000000	13.137457
538.000000	13.363154
539.000000	13.603047
540.000000	13.850096
541.000000	14.083774
542.000000	14.320601
543.000000	14.552581
544.000000	14.799786
545.000000	15.041334
546.000000	15.266596
547.000000	15.501203
548.000000	15.724485
549.000000	15.934879
550.000000	16.149829
551.000000	16.376923
552.000000	16.574834
553.000000	16.777630
554.000000	16.976876
555.000000	17.159774
556.000000	17.362054
557.000000	17.546539
558.000000	17.725667
559.000000	17.895346
560.000000	18.131307
561.000000	18.305601
562.000000	18.437072
563.000000	18.571952
564.000000	18.716419
565.000000	18.845683
566.000000	18.979131
567.000000	19.085926
568.000000	19.177725
569.000000	19.286960
570.000000	19.388013
571.000000	19.491473
572.000000	19.590831
573.000000	19.660171
574.000000	19.759271
575.000000	19.837218
576.000000	19.928042
577.000000	19.998766
578.000000	20.061252
579.000000	20.116629
580.000000	20.191373
581.000000	20.236969
582.000000	20.282864
583.000000	20.346435
584.000000	20.389777
585.000000	20.417784
586.000000	20.448169
587.000000	20.472634
588.000000	20.491123
589.000000	20.492008
590.000000	20.496433
591.000000	20.481036
592.000000	20.451726
593.000000	20.429782
594.000000	20.373805
595.000000	20.315431
596.000000	20.274623
597.000000	20.194686
598.000000	20.103797
599.000000	20.017339
600.000000	19.916881
601.000000	19.807159
602.000000	19.672551
603.000000	19.546166
604.000000	19.394153
605.000000	19.243382
606.000000	19.099702
607.000000	18.951584
608.000000	18.804126
609.000000	18.651356
610.000000	18.466273
611.000000	18.288838
612.000000	18.124046
613.000000	17.944942
614.000000	17.748809
615.000000	17.555231
616.000000	17.356972
617.000000	17.174292
618.000000	16.966974
619.000000	16.750759
620.000000	16.557140
621.000000	16.347244
622.000000	16.132865
623.000000	15.909974
624.000000	15.702375
625.000000	15.491995
626.000000	15.277212
627.000000	15.074503
628.000000	14.879112
629.000000	14.693377
630.000000	14.523817
631.000000	14.346538
632.000000	14.195658
633.000000	14.067723
634.000000	13.947735
635.000000	13.832831
636.000000	13.728503
637.000000	13.635931
638.000000	13.563200
639.000000	13.510860
640.000000	13.441035
641.000000	13.394251
642.000000	13.368413
643.000000	13.332848
644.000000	13.301602
645.000000	13.284766
646.000000	13.257323
647.000000	13.251623
648.000000	13.244261
649.000000	13.255443
650.000000	13.247681
651.000000	13.282988
652.000000	13.312288
653.000000	13.368268
654.000000	13.433430
655.000000	13.519719
656.000000	13.597109
657.000000	13.702010
658.000000	13.812817
659.000000	13.928324
660.000000	14.054058
661.000000	14.188081
662.000000	14.321509
663.000000	14.475898
664.000000	14.612983
665.000000	14.747354
666.000000	14.866860
667.000000	14.984049
668.000000	15.115118
669.000000	15.246250
670.000000	15.352516
671.000000	15.462278
672.000000	15.582577
673.000000	15.691243
674.000000	15.771876
675.000000	15.844814
676.000000	15.942741
677.000000	16.027957
678.000000	16.096894
679.000000	16.162855
680.000000	16.218110
681.000000	16.265952
682.000000	16.320416
683.000000	16.344168
684.000000	16.364286
685.000000	16.389810
686.000000	16.400715
687.000000	16.406412
688.000000	16.422817
689.000000	16.405432
690.000000	16.385945
691.000000	16.363434
692.000000	16.354017
693.000000	16.329612
694.000000	16.315267
695.000000	16.305175
696.000000	16.299756
697.000000	16.290933
698.000000	16.295170
699.000000	16.343673
700.000000	16.372509
701.000000	16.414850
702.000000	16.481847
703.000000	16.556219
704.000000	16.623055
705.000000	16.701327
706.000000	16.795443
707.000000	16.916405
708.000000	17.026762
709.000000	17.143136
710.000000	17.286723
711.000000	17.418380
712.000000	17.535907
713.000000	17.664136
714.000000	17.810962
715.000000	17.954925
716.000000	18.102784
717.000000	18.242622
718.000000	18.381904
719.000000	18.523614
720.000000	18.693025
721.000000	18.861574
722.000000	19.014858
723.000000	19.166182
724.000000	19.316432
725.000000	19.474051
726.000000	19.605160
727.000000	19.753777
728.000000	19.911326
729.000000	20.032818
730.000000	20.154492
731.000000	20.276883
732.000000	20.408770
733.000000	20.527046
734.000000	20.628025
735.000000	20.723104
736.000000	20.825713
737.000000	20.942047
738.000000	21.022656
739.000000	21.093668
740.000000	21.211932
741.000000	21.284564
742.000000	21.362504
743.000000	21.448654
744.000000	21.509042
745.000000	21.549793
746.000000	21.603272
747.000000	21.656405
748.000000	21.693374
749.000000	21.741945
750.000000	21.773805
751.000000	21.814442
752.000000	21.885227
753.000000	21.930900
754.000000	21.949249
755.000000	21.964553
756.000000	21.976206
757.000000	21.998952
758.000000	22.030513
759.000000	22.055713
760.000000	22.055959
761.000000	22.056160
762.000000	22.060456
763.000000	22.068221
764.000000	22.094583
765.000000	22.112991
766.000000	22.103742
767.000000	22.104471
768.000000	22.119801
769.000000	22.142204
770.000000	22.142992
771.000000	22.138770
772.000000	22.107714
773.000000	22.134118
774.000000	22.186382
775.000000	22.190620
776.000000	22.179007
777.000000	22.165539
778.000000	22.178088
779.000000	22.151903
780.000000	22.177694
781.000000	22.221422
782.000000	22.190286
783.000000	22.147882
784.000000	22.130388
785.000000	22.114887
786.000000	22.114935
787.000000	22.102349
788.000000	22.065514
789.000000	22.071930
790.000000	22.071723
791.000000	22.022272
792.000000	21.962982
793.000000	21.923087
794.000000	21.887673
795.000000	21.847335
796.000000	21.803838
797.000000	21.751942
798.000000	21.713263
799.000000	21.680670
800.000000	21.609824
801.000000	21.573185
802.000000	21.514404
803.000000	21.383233
804.000000	21.310162
805.000000	21.247943
806.000000	21.156493
807.000000	21.075261
808.000000	20.972980
809.000000	20.807041
810.000000	20.716357
811.000000	20.640501
812.000000	20.507006
813.000000	20.346212
814.000000	20.243739
815.000000	20.083184
816.000000	20.031122
817.000000	19.936960
818.000000	19.812997
819.000000	19.665805
820.000000	19.535482
821.000000	19.385872
822.000000	19.234138
823.000000	19.098883
824.000000	18.963309
825.000000	18.782718
826.000000	18.589991
827.000000	18.478311
828.000000	18.282294
829.000000	18.127833
830.000000	18.026813
831.000000	17.889765
832.000000	17.748765
833.000000	17.536888
834.000000	17.388260
835.000000	17.235674
836.000000	17.120978
837.000000	16.978777
838.000000	16.784251
839.000000	16.674733
840.000000	16.548047
841.000000	16.441018
842.000000	16.272140
843.000000	16.175338
844.000000	15.956463
845.000000	15.788545
846.000000	15.702756
847.000000	15.536937
848.000000	15.321059
849.000000	15.295736
850.000000	15.233887
851.000000	15.104243
852.000000	14.982697
853.000000	14.914364
854.000000	14.652208
855.000000	14.742516
856.000000	14.571136
857.000000	14.433085
858.000000	15.585714
859.000000	14.213530
860.000000	14.127676
861.000000	14.035378
862.000000	13.977258
863.000000	13.907729
864.000000	13.845124
865.000000	13.778887
866.000000	13.734129
867.000000	13.792611
868.000000	13.976115
869.000000	14.182089
870.000000	14.345444
871.000000	14.559390
872.000000	14.734144
873.000000	14.903921
874.000000	15.018731
875.000000	15.179752
876.000000	15.287069
877.000000	15.418958
878.000000	15.522704
879.000000	15.643429
880.000000	15.723909
881.000000	15.837087
882.000000	15.906290
883.000000	16.011199
884.000000	16.060233
885.000000	16.121465
886.000000	16.152950
887.000000	16.188899
888.000000	16.207176
889.000000	16.237879
890.000000	16.263565
891.000000	16.248414
892.000000	16.238221
893.000000	16.225689
894.000000	16.228727
895.000000	16.211646
896.000000	16.162634
897.000000	16.107656
898.000000	16.045505
899.000000	15.979349
900.000000	15.925618
901.000000	15.848469
902.000000	15.808376
903.000000	15.731621
904.000000	15.637962
905.000000	15.551831
906.000000	15.472801
907.000000	15.387229
908.000000	15.308532
909.000000	15.218785
910.000000	15.130689
911.000000	15.031440
912.000000	14.947680
913.000000	14.853337
914.000000	14.770584
915.000000	14.671393
916.000000	14.570953
917.000000	14.490255
918.000000	14.379072
919.000000	14.282864
920.000000	14.193393
921.000000	14.086735
922.000000	13.990078
923.000000	13.856363
924.000000	13.749659
925.000000	13.639438
926.000000	13.528648
927.000000	13.435322
928.000000	13.323997
929.000000	13.197805
930.000000	13.102605
931.000000	12.997992
932.000000	12.871127
933.000000	12.760365
934.000000	12.661301
935.000000	12.560935
936.000000	12.447560
937.000000	12.335511
938.000000	12.244943
939.000000	12.149363
940.000000	12.061333
941.000000	11.958924
942.000000	11.865611
943.000000	11.796446
944.000000	11.707758
945.000000	11.618701
946.000000	11.550812
947.000000	11.475818
948.000000	11.375273
949.000000	11.317646
950.000000	11.247722
951.000000	11.178819
952.000000	11.111940
953.000000	11.037071
954.000000	10.977754
955.000000	10.920917
956.000000	10.843880
957.000000	10.766692
958.000000	10.718168
959.000000	10.663681
960.000000	10.593624
961.000000	10.533403
962.000000	10.456957
963.000000	10.410033
964.000000	10.365919
965.000000	10.310270
966.000000	10.257124
967.000000	10.192352
968.000000	10.151499
969.000000	10.117770
970.000000	10.065033
971.000000	10.015376
972.000000	9.973601
973.000000	9.938766
974.000000	9.892912
975.000000	9.852802
976.000000	9.819878
977.000000	9.783056
978.000000	9.738685
979.000000	9.705185
980.000000	9.669968
981.000000	9.640203
982.000000	9.610354
983.000000	9.566237
984.000000	9.541668
985.000000	9.507760
986.000000	9.482295
987.000000	9.448351
988.000000	9.416023
989.000000	9.394356
990.000000	9.365621
991.000000	9.338104
992.000000	9.314689
993.000000	9.290533
994.000000	9.263290
995.000000	9.242118
996.000000	9.220368
997.000000	9.201889
998.000000	9.184694
999.000000	9.164761
1000.000000	9.146945
1001.000000	9.125210
1002.000000	9.112374
1003.000000	9.096279
1004.000000	9.084121
1005.000000	9.072537
1006.000000	9.054453
1007.000000	9.037282
1008.000000	9.028958
1009.000000	9.021766
1010.000000	9.004191
1011.000000	8.988585
1012.000000	8.976014
1013.000000	8.970153
1014.000000	8.971248
1015.000000	8.967574
1016.000000	8.964537
1017.000000	8.966623
1018.000000	8.975847
1019.000000	8.982905
1020.000000	8.992371
1021.000000	9.003657
1022.000000	9.005322
1023.000000	9.008887
1024.000000	9.015323
1025.000000	9.019638
1026.000000	9.030044
1027.000000	9.044195
1028.000000	9.051610
1029.000000	9.057041
1030.000000	9.064988
1031.000000	9.071880
1032.000000	9.077692
1033.000000	9.078256
1034.000000	9.084036
1035.000000	9.086534
1036.000000	9.096156
1037.000000	9.109348
1038.000000	9.105045
1039.000000	9.098559
1040.000000	9.100826
1041.000000	9.101976
1042.000000	9.099678
1043.000000	9.107962
1044.000000	9.113977
1045.000000	9.113558
1046.000000	9.116914
1047.000000	9.122245
1048.000000	9.128714
1049.000000	9.137971
1050.000000	9.139710
1051.000000	9.149030
1052.000000	9.157593
1053.000000	9.169065
1054.000000	9.181254
1055.000000	9.193935
1056.000000	9.211296
1057.000000	9.227619
1058.000000	9.241052
1059.000000	9.256441
1060.000000	9.275299
1061.000000	9.292054
1062.000000	9.303664
1063.000000	9.319228
1064.000000	9.334355
1065.000000	9.351103
1066.000000	9.364206
1067.000000	9.378533
1068.000000	9.392675
1069.000000	9.405707
1070.000000	9.413694
1071.000000	9.428605
1072.000000	9.441543
1073.000000	9.449139
1074.000000	9.466696
1075.000000	9.478108
1076.000000	9.492378
1077.000000	9.506136
1078.000000	9.508578
1079.000000	9.511980
1080.000000	9.520222
1081.000000	9.533919
1082.000000	9.543044
1083.000000	9.561930
1084.000000	9.571856
1085.000000	9.577862
1086.000000	9.591167
1087.000000	9.602243
1088.000000	9.612316
1089.000000	9.617800
1090.000000	9.629730
1091.000000	9.642869
1092.000000	9.662674
1093.000000	9.667263
1094.000000	9.668244
1095.000000	9.679121
1096.000000	9.692787
1097.000000	9.698866
1098.000000	9.697781
1099.000000	9.709201
1100.000000	9.722157
1101.000000	9.730664
1102.000000	9.729965
1103.000000	9.732728
1104.000000	9.750295
1105.000000	9.744428
1106.000000	9.747670
1107.000000	9.749742
1108.000000	9.750841
1109.000000	9.755978
1110.000000	9.753180
1111.000000	9.759507
1112.000000	9.753376
1113.000000	9.745816
1114.000000	9.747530
1115.000000	9.754102
1116.000000	9.755766
1117.000000	9.755965
1118.000000	9.747828
1119.000000	9.745008
1120.000000	9.729891
1121.000000	9.719959
1122.000000	9.711727
1123.000000	9.691522
1124.000000	9.670416
1125.000000	9.635562
1126.000000	9.614209
1127.000000	9.585255
1128.000000	9.540017
1129.000000	9.508177
1130.000000	9.456001
1131.000000	9.381105
1132.000000	9.291104
1133.000000	9.203453
1134.000000	9.123551
1135.000000	9.039354
1136.000000	8.932181
1137.000000	8.821125
1138.000000	8.697130
1139.000000	8.590952
1140.000000	8.480981
1141.000000	8.390411
1142.000000	8.290317
1143.000000	8.205914
1144.000000	8.111791
1145.000000	8.042893
1146.000000	7.991268
1147.000000	7.947411
1148.000000	7.930734
1149.000000	7.919369
1150.000000	7.923504
1151.000000	7.934680
1152.000000	7.942573
1153.000000	7.940717
1154.000000	7.929649
1155.000000	7.905896
1156.000000	7.865157
1157.000000	7.810974
1158.000000	7.738470
1159.000000	7.661872
1160.000000	7.588655
1161.000000	7.511579
1162.000000	7.429100
1163.000000	7.346748
1164.000000	7.252092
1165.000000	7.175689
1166.000000	7.091091
1167.000000	7.008441
1168.000000	6.934375
1169.000000	6.866697
1170.000000	6.797475
1171.000000	6.725119
1172.000000	6.665887
1173.000000	6.602101
1174.000000	6.552331
1175.000000	6.498073
1176.000000	6.445452
1177.000000	6.401241
1178.000000	6.340623
1179.000000	6.278713
1180.000000	6.215892
1181.000000	6.160687
1182.000000	6.108112
1183.000000	6.060420
1184.000000	6.045172
1185.000000	6.042850
1186.000000	6.035415
1187.000000	6.048077
1188.000000	6.063645
1189.000000	6.081547
1190.000000	6.122953
1191.000000	6.155375
1192.000000	6.199793
1193.000000	6.237755
1194.000000	6.282982
1195.000000	6.319362
1196.000000	6.355393
1197.000000	6.392072
1198.000000	6.417508
1199.000000	6.436048
1200.000000	6.458178
1201.000000	6.471811
1202.000000	6.480906
1203.000000	6.486263
1204.000000	6.502610
1205.000000	6.516364
1206.000000	6.528776
1207.000000	6.544467
1208.000000	6.561380
1209.000000	6.580027
1210.000000	6.600799
1211.000000	6.622573
1212.000000	6.639739
1213.000000	6.660191
1214.000000	6.686940
1215.000000	6.704347
1216.000000	6.729333
1217.000000	6.748637
1218.000000	6.770923
1219.000000	6.796238
1220.000000	6.817515
1221.000000	6.852001
1222.000000	6.876166
1223.000000	6.911110
1224.000000	6.946079
1225.000000	6.980826
1226.000000	7.018329
1227.000000	7.051378
1228.000000	7.077665
1229.000000	7.111368
1230.000000	7.152187
1231.000000	7.182253
1232.000000	7.211174
1233.000000	7.246386
1234.000000	7.290327
1235.000000	7.322210
1236.000000	7.349995
1237.000000	7.382000
1238.000000	7.415160
1239.000000	7.449731
1240.000000	7.479580
1241.000000	7.508856
1242.000000	7.549553
1243.000000	7.585270
1244.000000	7.620309
1245.000000	7.654772
1246.000000	7.685128
1247.000000	7.711257
1248.000000	7.740569
1249.000000	7.771198
1250.000000	7.793476
1251.000000	7.814496
1252.000000	7.832907
1253.000000	7.855007
1254.000000	7.870526
1255.000000	7.887128
1256.000000	7.905989
1257.000000	7.924180
1258.000000	7.931622
1259.000000	7.941105
1260.000000	7.951036
1261.000000	7.952016
1262.000000	7.966486
1263.000000	7.973704
1264.000000	7.980404
1265.000000	7.991320
1266.000000	8.004104
1267.000000	8.006248
1268.000000	8.009634
1269.000000	8.018222
1270.000000	8.027215
1271.000000	8.030064
1272.000000	8.036361
1273.000000	8.046960
1274.000000	8.053736
1275.000000	8.059232
1276.000000	8.070193
1277.000000	8.079724
1278.000000	8.083853
1279.000000	8.091944
1280.000000	8.104777
1281.000000	8.118826
1282.000000	8.137080
1283.000000	8.156920
1284.000000	8.176493
1285.000000	8.191217
1286.000000	8.202116
1287.000000	8.212727
1288.000000	8.223109
1289.000000	8.238890
1290.000000	8.247673
1291.000000	8.255262
1292.000000	8.272094
1293.000000	8.280058
1294.000000	8.281362
1295.000000	8.277774
1296.000000	8.281243
1297.000000	8.280478
1298.000000	8.277030
1299.000000	8.279380
1300.000000	8.276421
1301.000000	8.274422
1302.000000	8.274270
1303.000000	8.276966
1304.000000	8.275425
1305.000000	8.272757
1306.000000	8.265602
1307.000000	8.256304
1308.000000	8.249816
1309.000000	8.239047
1310.000000	8.224197
1311.000000	8.213723
1312.000000	8.203721
1313.000000	8.189412
1314.000000	8.174590
1315.000000	8.152958
1316.000000	8.137954
1317.000000	8.129464
1318.000000	8.113470
1319.000000	8.093092
1320.000000	8.074326
1321.000000	8.049017
1322.000000	8.029434
1323.000000	8.015865
1324.000000	7.996871
1325.000000	7.968953
1326.000000	7.944796
1327.000000	7.919129
1328.000000	7.895231
1329.000000	7.869154
1330.000000	7.845107
1331.000000	7.813479
1332.000000	7.783097
1333.000000	7.748969
1334.000000	7.708397
1335.000000	7.673337
1336.000000	7.635539
1337.000000	7.591634
1338.000000	7.553992
1339.000000	7.505746
1340.000000	7.457804
1341.000000	7.408486
1342.000000	7.353530
1343.000000	7.299755
1344.000000	7.245918
1345.000000	7.186350
1346.000000	7.111410
1347.000000	7.055583
1348.000000	6.991568
1349.000000	6.920371
1350.000000	6.840626
1351.000000	6.758446
1352.000000	6.669884
1353.000000	6.583521
1354.000000	6.515459
1355.000000	6.458812
1356.000000	6.411439
1357.000000	6.372228
1358.000000	6.347925
1359.000000	6.331108
1360.000000	6.328313
1361.000000	6.317499
1362.000000	6.314953
1363.000000	6.298604
1364.000000	6.275181
1365.000000	6.255934
1366.000000	6.233945
1367.000000	6.202223
1368.000000	6.171224
1369.000000	6.147340
1370.000000	6.124313
1371.000000	6.088933
1372.000000	6.071874
1373.000000	6.055812
1374.000000	6.031454
1375.000000	6.019142
1376.000000	6.008771
1377.000000	5.993240
1378.000000	5.982469
1379.000000	5.955128
1380.000000	5.928773
1381.000000	5.899438
1382.000000	5.876668
1383.000000	5.837647
1384.000000	5.816564
1385.000000	5.774411
1386.000000	5.740872
1387.000000	5.719987
1388.000000	5.689988
1389.000000	5.657145
1390.000000	5.638431
1391.000000	5.620079
1392.000000	5.585782
1393.000000	5.565922
1394.000000	5.554730
1395.000000	5.536510
1396.000000	5.491312
1397.000000	5.455823
1398.000000	5.433212
1399.000000	5.433023
1400.000000	5.392790
1401.000000	5.355130
1402.000000	5.307521
1403.000000	5.296030
1404.000000	5.262727
1405.000000	5.234209
1406.000000	5.195122
1407.000000	5.179817
1408.000000	5.148376
1409.000000	5.121526
1410.000000	5.073082
1411.000000	5.054525
1412.000000	5.044087
1413.000000	5.030585
1414.000000	5.004644
1415.000000	4.955341
1416.000000	4.937129
1417.000000	4.937083
1418.000000	4.919991
1419.000000	4.883514
1420.000000	4.852385
1421.000000	4.843202
1422.000000	4.835812
1423.000000	4.816559
1424.000000	4.793283
1425.000000	4.776445
1426.000000	4.758007
1427.000000	4.746864
1428.000000	4.735906
1429.000000	4.719296
1430.000000	4.703725
1431.000000	4.699669
1432.000000	4.682613
1433.000000	4.663028
1434.000000	4.651977
1435.000000	4.654527
1436.000000	4.636719
1437.000000	4.626489
1438.000000	4.616828
1439.000000	4.602623
1440.000000	4.590057
1441.000000	4.585157
1442.000000	4.574932
1443.000000	4.563289
1444.000000	4.572013
1445.000000	4.564745
1446.000000	4.551753
1447.000000	4.532639
1448.000000	4.526871
1449.000000	4.529678
1450.000000	4.527010
1451.000000	4.513098
1452.000000	4.506780
1453.000000	4.499909
1454.000000	4.488947
1455.000000	4.490078
1456.000000	4.473384
1457.000000	4.463070
1458.000000	4.467528
1459.000000	4.461215
1460.000000	4.460508
1461.000000	4.451264
1462.000000	4.450069
1463.000000	4.457329
1464.000000	4.448069
1465.000000	4.447336
1466.000000	4.438439
1467.000000	4.441958
1468.000000	4.443100
1469.000000	4.448382
1470.000000	4.438700
1471.000000	4.430919
1472.000000	4.432275
1473.000000	4.425006
1474.000000	4.429042
1475.000000	4.421270
1476.000000	4.430709
1477.000000	4.429837
1478.000000	4.428111
1479.000000	4.430276
1480.000000	4.433120
1481.000000	4.419938
1482.000000	4.422873
1483.000000	4.414485
1484.000000	4.421880
1485.000000	4.417172
1486.000000	4.413912
1487.000000	4.410828
1488.000000	4.406573
1489.000000	4.411476
1490.000000	4.414060
1491.000000	4.408211
1492.000000	4.403168
1493.000000	4.399332
1494.000000	4.391533
1495.000000	4.391090
1496.000000	4.393872
1497.000000	4.392573
1498.000000	4.391491
1499.000000	4.391157
1500.000000	4.398152
1501.000000	4.403866
1502.000000	4.410044
1503.000000	4.408675
1504.000000	4.415578
1505.000000	4.423583
1506.000000	4.423950
1507.000000	4.431222
1508.000000	4.433758
1509.000000	4.439288
1510.000000	4.434881
1511.000000	4.439954
1512.000000	4.445937
1513.000000	4.452532
1514.000000	4.456734
1515.000000	4.467320
1516.000000	4.471734
1517.000000	4.470801
1518.000000	4.477509
1519.000000	4.480879
1520.000000	4.486471
1521.000000	4.496173
1522.000000	4.500096
1523.000000	4.500202
1524.000000	4.501648
1525.000000	4.509806
1526.000000	4.519939
1527.000000	4.525558
1528.000000	4.530820
1529.000000	4.545860
1530.000000	4.548819
1531.000000	4.552194
1532.000000	4.549658
1533.000000	4.551900
1534.000000	4.562144
1535.000000	4.567791
1536.000000	4.581916
1537.000000	4.584448
1538.000000	4.584879
1539.000000	4.589393
1540.000000	4.586712
1541.000000	4.595714
1542.000000	4.602718
1543.000000	4.613017
1544.000000	4.623564
1545.000000	4.633685
1546.000000	4.644786
1547.000000	4.657484
1548.000000	4.670099
1549.000000	4.682881
1550.000000	4.698796
1551.000000	4.713481
1552.000000	4.720032
1553.000000	4.733225
1554.000000	4.746612
1555.000000	4.758010
1556.000000	4.765380
1557.000000	4.768487
1558.000000	4.779998
1559.000000	4.788217
1560.000000	4.786995
1561.000000	4.795281
1562.000000	4.800055
1563.000000	4.793913
1564.000000	4.796096
1565.000000	4.797931
1566.000000	4.794313
1567.000000	4.788322
1568.000000	4.786543
1569.000000	4.784025
1570.000000	4.783775
1571.000000	4.783219
1572.000000	4.779351
1573.000000	4.781615
1574.000000	4.787180
1575.000000	4.789711
1576.000000	4.797464
1577.000000	4.799717
1578.000000	4.801255
1579.000000	4.810110
1580.000000	4.815475
1581.000000	4.819629
1582.000000	4.829398
1583.000000	4.846345
1584.000000	4.855594
1585.000000	4.861449
1586.000000	4.862477
1587.000000	4.866826
1588.000000	4.878362
1589.000000	4.880624
1590.000000	4.890416
1591.000000	4.900787
1592.000000	4.904794
1593.000000	4.912992
1594.000000	4.926037
1595.000000	4.932105
1596.000000	4.944752
1597.000000	4.954356
1598.000000	4.960132
1599.000000	4.965077
1600.000000	4.971597
1601.000000	4.983596
1602.000000	4.988811
1603.000000	4.995580
1604.000000	5.002617
1605.000000	5.011643
1606.000000	5.014563
1607.000000	5.014480
1608.000000	5.024527
1609.000000	5.031006
1610.000000	5.033135
1611.000000	5.041611
1612.000000	5.042207
1613.000000	5.043796
1614.000000	5.043686
1615.000000	5.043235
1616.000000	5.049750
1617.000000	5.049243
1618.000000	5.052115
1619.000000	5.059696
1620.000000	5.057072
1621.000000	5.059326
1622.000000	5.058361
1623.000000	5.057067
1624.000000	5.056738
1625.000000	5.070664
1626.000000	5.074966
1627.000000	5.065735
1628.000000	5.077336
1629.000000	5.074799
1630.000000	5.072305
1631.000000	5.077912
1632.000000	5.085297
1633.000000	5.085582
1634.000000	5.085355
1635.000000	5.085092
1636.000000	5.088085
1637.000000	5.085372
1638.000000	5.090121
1639.000000	5.098944
1640.000000	5.099179
1641.000000	5.095742
1642.000000	5.089708
1643.000000	5.091867
1644.000000	5.093854
1645.000000	5.095146
1646.000000	5.096050
1647.000000	5.095239
1648.000000	5.092553
1649.000000	5.087888
1650.000000	5.096662
1651.000000	5.088533
1652.000000	5.084150
1653.000000	5.078784
1654.000000	5.073633
1655.000000	5.071671
1656.000000	5.071228
1657.000000	5.057331
1658.000000	5.044720
1659.000000	5.034487
1660.000000	5.016470
1661.000000	5.010541
1662.000000	4.984982
1663.000000	4.967028
1664.000000	4.953758
1665.000000	4.936705
1666.000000	4.921068
1667.000000	4.901853
1668.000000	4.874874
1669.000000	4.844918
1670.000000	4.823480
1671.000000	4.790327
1672.000000	4.756035
1673.000000	4.731887
1674.000000	4.706343
1675.000000	4.675740
1676.000000	4.632734
1677.000000	4.608962
1678.000000	4.565851
1679.000000	4.520667
1680.000000	4.484473
1681.000000	4.446996
1682.000000	4.433094
1683.000000	4.416040
1684.000000	4.382662
1685.000000	4.387542
1686.000000	4.369154
1687.000000	4.346795
1688.000000	4.332293
1689.000000	4.305808
1690.000000	4.292640
1691.000000	4.278837
1692.000000	4.277255
1693.000000	4.267917
1694.000000	4.278437
1695.000000	4.281926
1696.000000	4.288723
1697.000000	4.310124
1698.000000	4.323742
1699.000000	4.329261
1700.000000	4.355489
1701.000000	4.354827
1702.000000	4.361588
1703.000000	4.362787
1704.000000	4.370999
1705.000000	4.365590
1706.000000	4.360388
1707.000000	4.346557
1708.000000	4.352680
1709.000000	4.331444
1710.000000	4.320105
1711.000000	4.311971
1712.000000	4.291859
1713.000000	4.279382
1714.000000	4.250818
1715.000000	4.226633
1716.000000	4.207475
1717.000000	4.178584
1718.000000	4.167222
1719.000000	4.142879
1720.000000	4.121795
1721.000000	4.106765
1722.000000	4.096518
1723.000000	4.077235
1724.000000	4.073786
1725.000000	4.065565
1726.000000	4.056020
1727.000000	4.044743
1728.000000	4.037170
1729.000000	4.032499
1730.000000	4.039145
1731.000000	4.036473
1732.000000	4.031999
1733.000000	4.043666
1734.000000	4.044081
1735.000000	4.064346
1736.000000	4.085397
1737.000000	4.100623
1738.000000	4.124980
1739.000000	4.148942
1740.000000	4.168952
1741.000000	4.194993
1742.000000	4.205318
1743.000000	4.215484
1744.000000	4.222458
1745.000000	4.238348
1746.000000	4.244185
1747.000000	4.252399
1748.000000	4.252565
1749.000000	4.262682
1750.000000	4.270378
1751.000000	4.272693
1752.000000	4.278339
1753.000000	4.277553
1754.000000	4.279899
1755.000000	4.283319
1756.000000	4.285165
1757.000000	4.283601
1758.000000	4.279071
1759.000000	4.280542
1760.000000	4.287758
1761.000000	4.300681
1762.000000	4.303279
1763.000000	4.314229
1764.000000	4.335982
1765.000000	4.345213
1766.000000	4.357797
1767.000000	4.370402
1768.000000	4.390592
1769.000000	4.403003
1770.000000	4.420264
1771.000000	4.430727
1772.000000	4.443685
1773.000000	4.456290
1774.000000	4.464703
1775.000000	4.482316
1776.000000	4.488856
1777.000000	4.489814
1778.000000	4.501252
1779.000000	4.499293
1780.000000	4.508737
1781.000000	4.514711
1782.000000	4.522416
1783.000000	4.526711
1784.000000	4.530521
1785.000000	4.533178
1786.000000	4.532761
1787.000000	4.536098
1788.000000	4.535724
1789.000000	4.531672
1790.000000	4.537556
1791.000000	4.545973
1792.000000	4.542634
1793.000000	4.544971
1794.000000	4.549486
1795.000000	4.550175
1796.000000	4.554167
1797.000000	4.558345
1798.000000	4.552639
1799.000000	4.562609
1800.000000	4.575608
1801.000000	4.576041
1802.000000	4.567894
1803.000000	4.570696
1804.000000	4.585254
1805.000000	4.593976
1806.000000	4.589125
1807.000000	4.583372
1808.000000	4.587937
1809.000000	4.596930
1810.000000	4.601665
1811.000000	4.599479
1812.000000	4.595113
1813.000000	4.604389
1814.000000	4.605667
1815.000000	4.605833
1816.000000	4.600129
1817.000000	4.598379
1818.000000	4.613997
1819.000000	4.625553
1820.000000	4.619335
1821.000000	4.596720
1822.000000	4.581198
1823.000000	4.593630
1824.000000	4.616685
1825.000000	4.626101
1826.000000	4.627640
1827.000000	4.618388
1828.000000	4.619434
1829.000000	4.618371
1830.000000	4.609881
1831.000000	4.603062
1832.000000	4.605280
1833.000000	4.619198
1834.000000	4.636442
1835.000000	4.636074
1836.000000	4.613051
1837.000000	4.586580
1838.000000	4.579004
1839.000000	4.593772
1840.000000	4.603009
1841.000000	4.591774
1842.000000	4.564726
1843.000000	4.560554
1844.000000	4.585651
1845.000000	4.619750
1846.000000	4.629772
1847.000000	4.602207
1848.000000	4.561512
1849.000000	4.537568
1850.000000	4.537796
1851.000000	4.552873
1852.000000	4.554237
1853.000000	4.544948
1854.000000	4.530828
1855.000000	4.506016
1856.000000	4.497040
1857.000000	4.498364
1858.000000	4.482575
1859.000000	4.459773
1860.000000	4.438035
1861.000000	4.422347
1862.000000	4.413635
1863.000000	4.412130
1864.000000	4.412113
1865.000000	4.397731
1866.000000	4.381473
1867.000000	4.375845
1868.000000	4.346347
1869.000000	4.307240
1870.000000	4.266148
1871.000000	4.219497
1872.000000	4.189155
1873.000000	4.160196
1874.000000	4.130906
1875.000000	4.101919
1876.000000	4.073976
1877.000000	4.041829
1878.000000	4.008551
1879.000000	3.980362
1880.000000	3.953911
1881.000000	3.918048
1882.000000	3.865981
1883.000000	3.818433
1884.000000	3.758953
1885.000000	3.698346
1886.000000	3.648451
1887.000000	3.604836
1888.000000	3.564908
1889.000000	3.504828
1890.000000	3.452720
1891.000000	3.389380
1892.000000	3.312932
1893.000000	3.251622
1894.000000	3.197427
1895.000000	3.162131
1896.000000	3.146803
1897.000000	3.118955
1898.000000	3.055094
1899.000000	2.995170
1900.000000	2.909514
1901.000000	2.864552
1902.000000	2.837281
1903.000000	2.807295
1904.000000	2.765582
1905.000000	2.707988
1906.000000	2.641296
1907.000000	2.596264
1908.000000	2.562408
1909.000000	2.555008
1910.000000	2.547478
1911.000000	2.516200
1912.000000	2.486336
1913.000000	2.439326
1914.000000	2.378778
1915.000000	2.345812
1916.000000	2.336014
1917.000000	2.331512
1918.000000	2.326818
1919.000000	2.295208
1920.000000	2.257005
1921.000000	2.218078
1922.000000	2.181637
1923.000000	2.169968
1924.000000	2.162320
1925.000000	2.141481
1926.000000	2.127211
1927.000000	2.114359
1928.000000	2.088824
1929.000000	2.070443
1930.000000	2.059266
1931.000000	2.047895
1932.000000	2.046334
1933.000000	2.040901
1934.000000	2.037490
1935.000000	2.036883
1936.000000	2.035379
1937.000000	2.034980
1938.000000	2.024400
1939.000000	2.024430
1940.000000	2.024597
1941.000000	2.016433
1942.000000	2.023354
1943.000000	2.032514
1944.000000	2.042828
1945.000000	2.046349
1946.000000	2.050154
1947.000000	2.056446
1948.000000	2.076006
1949.000000	2.073677
1950.000000	2.078802
1951.000000	2.093641
1952.000000	2.112009
1953.000000	2.122674
1954.000000	2.131126
1955.000000	2.138213
1956.000000	2.147575
1957.000000	2.153114
1958.000000	2.168840
1959.000000	2.170696
1960.000000	2.182449
1961.000000	2.204689
1962.000000	2.212398
1963.000000	2.221560
1964.000000	2.226762
1965.000000	2.241461
1966.000000	2.256372
1967.000000	2.257603
1968.000000	2.280818
1969.000000	2.286828
1970.000000	2.289471
1971.000000	2.304898
1972.000000	2.322431
1973.000000	2.322264
1974.000000	2.331854
1975.000000	2.350077
1976.000000	2.361843
1977.000000	2.362504
1978.000000	2.385003
1979.000000	2.394928
1980.000000	2.403508
1981.000000	2.409419
1982.000000	2.424118
1983.000000	2.442553
1984.000000	2.445409
1985.000000	2.462614
1986.000000	2.472905
1987.000000	2.479414
1988.000000	2.482004
1989.000000	2.498074
1990.000000	2.496509
1991.000000	2.518017
1992.000000	2.524374
1993.000000	2.540326
1994.000000	2.545050
1995.000000	2.551994
1996.000000	2.559843
1997.000000	2.561101
1998.000000	2.576548
1999.000000	2.573123
2000.000000	2.584624
2001.000000	2.584908
2002.000000	2.591784
2003.000000	2.600310
2004.000000	2.596823
2005.000000	2.593759
2006.000000	2.588478
2007.000000	2.593388
2008.000000	2.592537
2009.000000	2.595127
2010.000000	2.591726
2011.000000	2.578929
2012.000000	2.591677
2013.000000	2.579951
2014.000000	2.576098
2015.000000	2.575468
2016.000000	2.562732
2017.000000	2.558195
2018.000000	2.557818
2019.000000	2.551214
2020.000000	2.543537
2021.000000	2.534038
2022.000000	2.520655
2023.000000	2.516272
2024.000000	2.502812
2025.000000	2.506304
2026.000000	2.496487
2027.000000	2.486519
2028.000000	2.470043
2029.000000	2.460154
2030.000000	2.445311
2031.000000	2.424433
2032.000000	2.407186
2033.000000	2.403274
2034.000000	2.387707
2035.000000	2.359598
2036.000000	2.342247
2037.000000	2.322418
2038.000000	2.301818
2039.000000	2.280043
2040.000000	2.265468
2041.000000	2.247185
2042.000000	2.226778
2043.000000	2.206502
2044.000000	2.181597
2045.000000	2.165464
2046.000000	2.146207
2047.000000	2.127884
2048.000000	2.113021
2049.000000	2.094377
2050.000000	2.090257
2051.000000	2.084318
2052.000000	2.074340
2053.000000	2.062836
2054.000000	2.057135
2055.000000	2.056234
2056.000000	2.063077
2057.000000	2.068295
2058.000000	2.067140
2059.000000	2.076941
2060.000000	2.079218
2061.000000	2.088727
2062.000000	2.099390
2063.000000	2.107928
2064.000000	2.118667
2065.000000	2.131559
2066.000000	2.143625
2067.000000	2.158326
2068.000000	2.175675
2069.000000	2.185133
2070.000000	2.199009
2071.000000	2.217536
2072.000000	2.228178
2073.000000	2.246344
2074.000000	2.261086
2075.000000	2.273872
2076.000000	2.291170
2077.000000	2.305667
2078.000000	2.315995
2079.000000	2.325893
2080.000000	2.332695
2081.000000	2.347456
2082.000000	2.362361
2083.000000	2.373279
2084.000000	2.383010
2085.000000	2.389464
2086.000000	2.395927
2087.000000	2.405594
2088.000000	2.418318
2089.000000	2.422504
2090.000000	2.430565
2091.000000	2.439983
2092.000000	2.444627
2093.000000	2.450999
2094.000000	2.460490
2095.000000	2.473990
2096.000000	2.487290
2097.000000	2.490521
2098.000000	2.493571
2099.000000	2.502423
2100.000000	2.515828
2101.000000	2.520328
2102.000000	2.521589
2103.000000	2.534682
2104.000000	2.541442
2105.000000	2.549424
2106.000000	2.556676
2107.000000	2.559826
2108.000000	2.569300
2109.000000	2.571156
2110.000000	2.578710
2111.000000	2.587595
2112.000000	2.597559
2113.000000	2.595955
2114.000000	2.591981
2115.000000	2.605756
2116.000000	2.611458
2117.000000	2.615612
2118.000000	2.615689
2119.000000	2.618743
2120.000000	2.628290
2121.000000	2.634112
2122.000000	2.635753
2123.000000	2.630912
2124.000000	2.629955
2125.000000	2.634670
2126.000000	2.637962
2127.000000	2.635361
2128.000000	2.628410
2129.000000	2.625631
2130.000000	2.626352
2131.000000	2.623174
2132.000000	2.618039
2133.000000	2.625483
2134.000000	2.625242
2135.000000	2.615076
2136.000000	2.613165
2137.000000	2.607212
2138.000000	2.601845
2139.000000	2.598582
2140.000000	2.591978
2141.000000	2.586356
2142.000000	2.578269
2143.000000	2.565650
2144.000000	2.555864
2145.000000	2.549426
2146.000000	2.545883
2147.000000	2.534872
2148.000000	2.528511
2149.000000	2.519759
2150.000000	2.511911
2151.000000	2.512561
2152.000000	2.508148
2153.000000	2.498039
2154.000000	2.489342
2155.000000	2.485264
2156.000000	2.480273
2157.000000	2.477905
2158.000000	2.464855
2159.000000	2.465780
2160.000000	2.457940
2161.000000	2.453726
2162.000000	2.450423
2163.000000	2.440910
2164.000000	2.433086
2165.000000	2.429230
2166.000000	2.421166
2167.000000	2.422954
2168.000000	2.421199
2169.000000	2.421434
2170.000000	2.417886
2171.000000	2.415311
2172.000000	2.410406
2173.000000	2.403411
2174.000000	2.407225
2175.000000	2.409342
2176.000000	2.409910
2177.000000	2.406258
2178.000000	2.405200
2179.000000	2.406944
2180.000000	2.401009
2181.000000	2.404764
2182.000000	2.404377
2183.000000	2.400924
2184.000000	2.403978
2185.000000	2.401218
2186.000000	2.403730
2187.000000	2.412904
2188.000000	2.416895
2189.000000	2.411176
2190.000000	2.405339
2191.000000	2.416405
2192.000000	2.413401
2193.000000	2.413570
2194.000000	2.421419
2195.000000	2.421745
2196.000000	2.427698
2197.000000	2.436047
2198.000000	2.426041
2199.000000	2.438902
2200.000000	2.445295
2201.000000	2.446313
2202.000000	2.456706
2203.000000	2.464079
2204.000000	2.462735
2205.000000	2.471573
2206.000000	2.473495
2207.000000	2.476354
2208.000000	2.494400
2209.000000	2.503354
2210.000000	2.502857
2211.000000	2.505878
2212.000000	2.510569
2213.000000	2.515375
2214.000000	2.523055
2215.000000	2.532966
2216.000000	2.540646
2217.000000	2.546054
2218.000000	2.532774
2219.000000	2.555093
2220.000000	2.555743
2221.000000	2.565878
2222.000000	2.567229
2223.000000	2.577580
2224.000000	2.582894
2225.000000	2.591403
2226.000000	2.581457
2227.000000	2.577377
2228.000000	2.582737
2229.000000	2.589794
2230.000000	2.586200
2231.000000	2.586726
2232.000000	2.577806
2233.000000	2.570430
2234.000000	2.569555
2235.000000	2.564406
2236.000000	2.556286
2237.000000	2.552283
2238.000000	2.546584
2239.000000	2.538703
2240.000000	2.522560
2241.000000	2.514806
2242.000000	2.506143
2243.000000	2.488893
2244.000000	2.478079
2245.000000	2.457769
2246.000000	2.445978
2247.000000	2.430949
2248.000000	2.405317
2249.000000	2.376890
2250.000000	2.358671
2251.000000	2.332294
2252.000000	2.306539
2253.000000	2.289574
2254.000000	2.258125
2255.000000	2.246022
2256.000000	2.216209
2257.000000	2.195570
2258.000000	2.163134
2259.000000	2.145389
2260.000000	2.124713
2261.000000	2.117604
2262.000000	2.093635
2263.000000	2.091923
2264.000000	2.072432
2265.000000	2.062152
2266.000000	2.049214
2267.000000	2.046892
2268.000000	2.044442
2269.000000	2.039895
2270.000000	2.039056
2271.000000	2.055091
2272.000000	2.055805
2273.000000	2.050911
2274.000000	2.061742
2275.000000	2.070557
2276.000000	2.077869
2277.000000	2.084254
2278.000000	2.095237
2279.000000	2.106231
2280.000000	2.116725
2281.000000	2.117359
2282.000000	2.130902
2283.000000	2.136666
2284.000000	2.150482
2285.000000	2.147324
2286.000000	2.154284
2287.000000	2.165545
2288.000000	2.172392
2289.000000	2.182639
2290.000000	2.176401
2291.000000	2.184047
2292.000000	2.182321
2293.000000	2.180349
2294.000000	2.176857
2295.000000	2.172338
2296.000000	2.172193
2297.000000	2.174065
2298.000000	2.171572
2299.000000	2.162267
2300.000000	2.162685
2301.000000	2.167370
2302.000000	2.162896
2303.000000	2.161179
2304.000000	2.154765
2305.000000	2.164114
2306.000000	2.159951
2307.000000	2.159852
2308.000000	2.164292
2309.000000	2.174141
2310.000000	2.180124
2311.000000	2.192556
2312.000000	2.205184
2313.000000	2.206080
2314.000000	2.213076
2315.000000	2.224587
2316.000000	2.236090
2317.000000	2.250654
2318.000000	2.257374
2319.000000	2.268804
2320.000000	2.274524
2321.000000	2.285928
2322.000000	2.298108
2323.000000	2.312292
2324.000000	2.312738
2325.000000	2.316985
2326.000000	2.338197
2327.000000	2.345639
2328.000000	2.354308
2329.000000	2.364523
2330.000000	2.371572
2331.000000	2.382977
2332.000000	2.384956
2333.000000	2.399481
2334.000000	2.406863
2335.000000	2.405613
2336.000000	2.414617
2337.000000	2.420919
2338.000000	2.422765
2339.000000	2.425696
2340.000000	2.422926
2341.000000	2.424624
2342.000000	2.435430
2343.000000	2.438406
2344.000000	2.441010
2345.000000	2.443003
2346.000000	2.447400
2347.000000	2.452412
2348.000000	2.455182
2349.000000	2.456223
2350.000000	2.462433
2351.000000	2.470137
2352.000000	2.477916
2353.000000	2.483077
2354.000000	2.490569
2355.000000	2.494597
2356.000000	2.503299
2357.000000	2.516545
2358.000000	2.527044
2359.000000	2.534136
2360.000000	2.546841
2361.000000	2.558101
2362.000000	2.561951
2363.000000	2.568122
2364.000000	2.580468
2365.000000	2.589409
2366.000000	2.599082
2367.000000	2.611528
2368.000000	2.615872
2369.000000	2.622109
2370.000000	2.627426
2371.000000	2.631918
2372.000000	2.639142
2373.000000	2.649227
2374.000000	2.654938
2375.000000	2.659229
2376.000000	2.668149
2377.000000	2.676824
2378.000000	2.680766
2379.000000	2.681835
2380.000000	2.691253
2381.000000	2.699102
2382.000000	2.705649
2383.000000	2.708860
2384.000000	2.708424
2385.000000	2.715068
2386.000000	2.718360
2387.000000	2.717563
2388.000000	2.714500
2389.000000	2.722618
2390.000000	2.726468
2391.000000	2.728859
2392.000000	2.733338
2393.000000	2.733937
2394.000000	2.732255
2395.000000	2.734747
2396.000000	2.735970
2397.000000	2.740805
2398.000000	2.746708
2399.000000	2.748026
2400.000000	2.736014
2401.000000	2.737367
2402.000000	2.744346
2403.000000	2.742907
2404.000000	2.743808
2405.000000	2.743241
2406.000000	2.737182
2407.000000	2.727956
2408.000000	2.729307
2409.000000	2.729919
2410.000000	2.724827
2411.000000	2.719173
2412.000000	2.719867
2413.000000	2.716154
2414.000000	2.709917
2415.000000	2.702648
2416.000000	2.699086
2417.000000	2.692771
2418.000000	2.683344
2419.000000	2.678686
2420.000000	2.677287
2421.000000	2.671479
2422.000000	2.652899
2423.000000	2.640338
2424.000000	2.637114
2425.000000	2.624547
2426.000000	2.615013
2427.000000	2.615740
2428.000000	2.605004
2429.000000	2.582937
2430.000000	2.577456
2431.000000	2.572785
2432.000000	2.562191
2433.000000	2.558142
2434.000000	2.540183
2435.000000	2.530211
2436.000000	2.512489
2437.000000	2.502543
2438.000000	2.494624
2439.000000	2.481203
2440.000000	2.465141
2441.000000	2.454104
2442.000000	2.440664
2443.000000	2.425746
2444.000000	2.418006
2445.000000	2.402699
2446.000000	2.398895
2447.000000	2.390742
2448.000000	2.373909
2449.000000	2.355387
2450.000000	2.345849
2451.000000	2.340611
2452.000000	2.327821
2453.000000	2.313070
2454.000000	2.299404
2455.000000	2.292974
2456.000000	2.266208
2457.000000	2.266002
2458.000000	2.262982
2459.000000	2.263174
2460.000000	2.240123
2461.000000	2.226947
2462.000000	2.230756
2463.000000	2.224048
2464.000000	2.212261
2465.000000	2.213977
2466.000000	2.213529
2467.000000	2.219286
2468.000000	2.208846
2469.000000	2.214381
2470.000000	2.198559
2471.000000	2.198037
2472.000000	2.193999
2473.000000	2.200180
2474.000000	2.204826
2475.000000	2.205496
2476.000000	2.174615
2477.000000	2.212748
2478.000000	2.204750
2479.000000	2.208240
2480.000000	2.185441
2481.000000	2.207211
2482.000000	2.180821
2483.000000	2.207254
2484.000000	2.195902
2485.000000	2.215622
2486.000000	2.237369
2487.000000	2.220534
2488.000000	2.228823
2489.000000	2.230037
2490.000000	2.218375
2491.000000	2.227050
2492.000000	2.232516
2493.000000	2.210188
2494.000000	2.212274
2495.000000	2.203002
2496.000000	2.238021
2497.000000	2.199710
2498.000000	2.220561
2499.000000	2.200007
2500.000000	2.208145
