PE UV       SUBTECH     SPECTRUM    ASCII       PEDS        4.00        
   -1
CICIMAUCR0112-3.Sample.ASC
24/04/22
10:19:40.00
24/04/22
10:19:40.00
Vinicio Soto Monge
C. resplendens
250,000000
1
Lambda 1050
1050L1511233
PerkinElmer UV WinLab 6.3.2.0749 / 2.02.05 Lambda 900 UV/VIS/NIR, Aug  7 2015 09:38:08

0
0
3350/servo 860,8/2
0
0
UV/VIS
1
1
1
DoubleDePol,CommonBeamDepol,RBeamAtt,SBeamAtt,60mm sphere, WB InGaAs Detector
0
0
0
0
Program
Program
3350/servo 860,8/2
3350/0,2 860,8/0,2
3350/0,2 860,8/0,2
0
15.00
 
 
 
0
 
860,8
319,2
860,8
Front
100
on
S:100 R:100
0
0
0
0
 
0
 
 
 
0
 
 
0
0
0
0
0
 
 
 
 
0
0


0
0
#HDR
-1
-1
#GR
nm
%R
1.0
0.0
2500,000000
-1,000000
2251
8
88,787000
5,681000
#DATA
250.000000	0.347263
251.000000	0.351782
252.000000	0.341769
253.000000	0.330393
254.000000	0.328873
255.000000	0.366994
256.000000	0.350408
257.000000	0.329257
258.000000	0.345261
259.000000	0.327982
260.000000	0.297582
261.000000	0.363769
262.000000	0.370946
263.000000	0.337811
264.000000	0.319280
265.000000	0.339236
266.000000	0.306133
267.000000	0.319410
268.000000	0.314937
269.000000	0.269567
270.000000	0.318257
271.000000	0.315145
272.000000	0.304762
273.000000	0.295654
274.000000	0.314797
275.000000	0.293396
276.000000	0.285447
277.000000	0.294739
278.000000	0.319679
279.000000	0.290582
280.000000	0.284489
281.000000	0.315044
282.000000	0.306215
283.000000	0.310615
284.000000	0.283106
285.000000	0.304346
286.000000	0.288814
287.000000	0.301563
288.000000	0.306678
289.000000	0.322180
290.000000	0.309658
291.000000	0.294936
292.000000	0.328541
293.000000	0.320598
294.000000	0.368419
295.000000	0.326079
296.000000	0.314351
297.000000	0.355436
298.000000	0.345629
299.000000	0.361784
300.000000	0.336318
301.000000	0.365613
302.000000	0.319012
303.000000	0.362342
304.000000	0.333028
305.000000	0.372907
306.000000	0.335191
307.000000	0.350027
308.000000	0.352032
309.000000	0.392960
310.000000	0.362897
311.000000	0.347230
312.000000	0.347361
313.000000	0.382672
314.000000	0.358190
315.000000	0.363470
316.000000	0.371244
317.000000	0.406078
318.000000	0.367492
319.000000	0.341870
320.000000	0.354276
321.000000	0.413822
322.000000	0.312845
323.000000	0.305378
324.000000	0.400070
325.000000	0.294060
326.000000	0.303597
327.000000	0.353244
328.000000	0.363886
329.000000	0.379996
330.000000	0.364249
331.000000	0.358478
332.000000	0.359775
333.000000	0.377299
334.000000	0.379312
335.000000	0.374151
336.000000	0.413241
337.000000	0.373162
338.000000	0.440463
339.000000	0.385130
340.000000	0.376722
341.000000	0.327328
342.000000	0.323252
343.000000	0.317644
344.000000	0.372186
345.000000	0.402987
346.000000	0.411993
347.000000	0.356366
348.000000	0.378536
349.000000	0.375282
350.000000	0.379123
351.000000	0.355239
352.000000	0.347183
353.000000	0.391398
354.000000	0.356374
355.000000	0.393118
356.000000	0.368143
357.000000	0.361553
358.000000	0.382129
359.000000	0.383960
360.000000	0.391933
361.000000	0.386418
362.000000	0.383760
363.000000	0.409608
364.000000	0.420598
365.000000	0.417989
366.000000	0.388773
367.000000	0.392144
368.000000	0.393891
369.000000	0.381090
370.000000	0.405114
371.000000	0.397091
372.000000	0.441616
373.000000	0.459984
374.000000	0.430319
375.000000	0.402486
376.000000	0.386109
377.000000	0.380189
378.000000	0.368848
379.000000	0.360971
380.000000	0.365926
381.000000	0.367725
382.000000	0.358325
383.000000	0.356049
384.000000	0.361858
385.000000	0.354105
386.000000	0.351746
387.000000	0.348292
388.000000	0.343875
389.000000	0.344546
390.000000	0.347931
391.000000	0.341042
392.000000	0.331976
393.000000	0.324611
394.000000	0.307744
395.000000	0.304505
396.000000	0.301077
397.000000	0.297939
398.000000	0.290666
399.000000	0.290224
400.000000	0.280775
401.000000	0.282327
402.000000	0.293967
403.000000	0.311732
404.000000	0.328728
405.000000	0.355051
406.000000	0.391745
407.000000	0.431951
408.000000	0.480657
409.000000	0.544906
410.000000	0.606533
411.000000	0.665069
412.000000	0.733135
413.000000	0.805742
414.000000	0.881216
415.000000	0.949611
416.000000	1.022393
417.000000	1.098358
418.000000	1.170938
419.000000	1.227963
420.000000	1.292550
421.000000	1.355304
422.000000	1.410197
423.000000	1.451720
424.000000	1.481798
425.000000	1.499217
426.000000	1.514340
427.000000	1.522785
428.000000	1.525193
429.000000	1.520642
430.000000	1.494138
431.000000	1.449377
432.000000	1.407612
433.000000	1.373248
434.000000	1.334580
435.000000	1.279065
436.000000	1.203203
437.000000	1.139787
438.000000	1.092403
439.000000	1.030542
440.000000	0.951053
441.000000	0.888652
442.000000	0.837376
443.000000	0.785091
444.000000	0.745296
445.000000	0.687980
446.000000	0.655025
447.000000	0.623567
448.000000	0.580310
449.000000	0.559337
450.000000	0.534866
451.000000	0.513729
452.000000	0.504948
453.000000	0.494349
454.000000	0.479183
455.000000	0.476337
456.000000	0.489061
457.000000	0.501821
458.000000	0.498499
459.000000	0.514177
460.000000	0.521952
461.000000	0.516553
462.000000	0.522592
463.000000	0.544397
464.000000	0.558301
465.000000	0.576125
466.000000	0.608345
467.000000	0.645986
468.000000	0.680784
469.000000	0.716425
470.000000	0.764552
471.000000	0.811479
472.000000	0.859504
473.000000	0.914155
474.000000	0.954973
475.000000	1.005552
476.000000	1.075657
477.000000	1.136357
478.000000	1.210278
479.000000	1.288026
480.000000	1.358614
481.000000	1.423101
482.000000	1.482920
483.000000	1.543523
484.000000	1.593247
485.000000	1.623064
486.000000	1.639417
487.000000	1.633178
488.000000	1.607185
489.000000	1.564193
490.000000	1.505353
491.000000	1.440459
492.000000	1.359293
493.000000	1.281657
494.000000	1.246617
495.000000	1.254766
496.000000	1.337642
497.000000	1.486124
498.000000	1.678289
499.000000	1.917207
500.000000	2.202040
501.000000	2.504163
502.000000	2.814237
503.000000	3.110801
504.000000	3.389007
505.000000	3.637365
506.000000	3.849186
507.000000	4.035407
508.000000	4.172114
509.000000	4.271212
510.000000	4.324409
511.000000	4.366795
512.000000	4.348354
513.000000	4.300659
514.000000	4.218053
515.000000	4.105757
516.000000	3.994160
517.000000	3.853252
518.000000	3.689435
519.000000	3.532205
520.000000	3.349043
521.000000	3.175309
522.000000	2.992708
523.000000	2.850042
524.000000	2.672185
525.000000	2.507922
526.000000	2.358619
527.000000	2.244192
528.000000	2.118018
529.000000	1.990458
530.000000	1.843659
531.000000	1.710937
532.000000	1.585363
533.000000	1.450085
534.000000	1.332635
535.000000	1.210889
536.000000	1.056578
537.000000	0.948528
538.000000	0.852406
539.000000	0.782662
540.000000	0.724421
541.000000	0.709767
542.000000	0.727318
543.000000	0.760776
544.000000	0.790776
545.000000	0.856979
546.000000	0.916385
547.000000	0.990731
548.000000	1.091691
549.000000	1.170007
550.000000	1.243878
551.000000	1.305525
552.000000	1.397918
553.000000	1.490946
554.000000	1.588633
555.000000	1.686273
556.000000	1.739251
557.000000	1.848045
558.000000	1.911107
559.000000	2.002503
560.000000	2.101414
561.000000	2.169346
562.000000	2.243551
563.000000	2.277914
564.000000	2.357386
565.000000	2.424449
566.000000	2.447646
567.000000	2.511027
568.000000	2.530588
569.000000	2.577025
570.000000	2.588649
571.000000	2.579809
572.000000	2.594004
573.000000	2.628590
574.000000	2.647661
575.000000	2.676510
576.000000	2.717151
577.000000	2.769036
578.000000	2.793147
579.000000	2.916243
580.000000	2.961440
581.000000	3.061291
582.000000	3.161762
583.000000	3.214756
584.000000	3.349840
585.000000	3.474994
586.000000	3.602784
587.000000	3.712042
588.000000	3.814834
589.000000	3.915339
590.000000	4.046496
591.000000	4.131425
592.000000	4.205303
593.000000	4.314337
594.000000	4.368175
595.000000	4.462981
596.000000	4.553397
597.000000	4.623555
598.000000	4.681376
599.000000	4.744948
600.000000	4.841553
601.000000	4.943593
602.000000	5.042829
603.000000	5.200632
604.000000	5.312079
605.000000	5.464562
606.000000	5.616709
607.000000	5.792822
608.000000	5.952004
609.000000	6.132917
610.000000	6.272458
611.000000	6.437555
612.000000	6.523022
613.000000	6.647492
614.000000	6.688689
615.000000	6.733003
616.000000	6.703419
617.000000	6.645830
618.000000	6.611168
619.000000	6.506095
620.000000	6.409169
621.000000	6.287632
622.000000	6.178864
623.000000	6.051311
624.000000	5.986780
625.000000	5.931263
626.000000	5.867635
627.000000	5.823348
628.000000	5.775081
629.000000	5.690582
630.000000	5.547701
631.000000	5.445966
632.000000	5.251300
633.000000	4.913793
634.000000	4.580009
635.000000	4.170085
636.000000	3.719103
637.000000	3.239271
638.000000	2.713273
639.000000	2.242265
640.000000	1.801786
641.000000	1.439155
642.000000	1.225465
643.000000	1.141155
644.000000	1.136343
645.000000	1.206458
646.000000	1.288372
647.000000	1.321825
648.000000	1.367588
649.000000	1.374330
650.000000	1.368969
651.000000	1.335878
652.000000	1.353539
653.000000	1.371287
654.000000	1.358655
655.000000	1.332211
656.000000	1.373013
657.000000	1.344393
658.000000	1.344635
659.000000	1.319076
660.000000	1.265005
661.000000	1.217001
662.000000	1.124934
663.000000	1.004973
664.000000	0.801866
665.000000	0.621464
666.000000	0.433384
667.000000	0.324281
668.000000	0.414248
669.000000	0.642931
670.000000	0.858805
671.000000	1.043644
672.000000	1.212677
673.000000	1.306444
674.000000	1.362589
675.000000	1.376327
676.000000	1.321077
677.000000	1.286878
678.000000	1.206257
679.000000	1.161210
680.000000	1.092955
681.000000	1.065387
682.000000	1.018693
683.000000	1.035131
684.000000	1.063322
685.000000	1.139461
686.000000	1.236262
687.000000	1.389757
688.000000	1.487725
689.000000	1.610134
690.000000	1.726384
691.000000	1.852537
692.000000	1.917689
693.000000	1.957806
694.000000	1.982984
695.000000	1.965054
696.000000	1.897481
697.000000	1.835020
698.000000	1.794308
699.000000	1.756552
700.000000	1.708469
701.000000	1.652553
702.000000	1.610479
703.000000	1.540883
704.000000	1.563688
705.000000	1.574698
706.000000	1.618809
707.000000	1.629255
708.000000	1.636028
709.000000	1.716945
710.000000	1.745394
711.000000	1.808117
712.000000	1.875074
713.000000	1.873908
714.000000	1.881720
715.000000	1.840364
716.000000	1.771952
717.000000	1.749658
718.000000	1.695533
719.000000	1.615803
720.000000	1.537812
721.000000	1.467001
722.000000	1.399856
723.000000	1.349091
724.000000	1.310209
725.000000	1.293486
726.000000	1.230530
727.000000	1.184236
728.000000	1.174730
729.000000	1.153347
730.000000	1.113986
731.000000	1.081320
732.000000	1.117553
733.000000	1.108123
734.000000	1.103332
735.000000	1.087903
736.000000	1.017306
737.000000	0.987048
738.000000	0.992074
739.000000	0.973518
740.000000	0.955821
741.000000	0.891614
742.000000	0.874455
743.000000	0.860392
744.000000	0.776766
745.000000	0.670776
746.000000	0.617831
747.000000	0.585616
748.000000	0.505259
749.000000	0.466146
750.000000	0.511010
751.000000	0.597561
752.000000	0.670947
753.000000	0.736313
754.000000	0.836867
755.000000	0.946394
756.000000	1.080617
757.000000	1.187879
758.000000	1.282497
759.000000	1.316999
760.000000	1.357274
761.000000	1.471376
762.000000	1.489519
763.000000	1.487129
764.000000	1.549662
765.000000	1.573947
766.000000	1.570758
767.000000	1.567528
768.000000	1.589764
769.000000	1.553324
770.000000	1.568027
771.000000	1.708538
772.000000	1.772825
773.000000	1.732956
774.000000	1.749481
775.000000	1.767200
776.000000	1.848344
777.000000	1.890841
778.000000	1.957912
779.000000	2.071145
780.000000	2.086557
781.000000	2.000263
782.000000	2.016859
783.000000	2.121741
784.000000	2.165998
785.000000	2.186654
786.000000	2.227741
787.000000	2.271762
788.000000	2.381376
789.000000	2.457766
790.000000	2.512027
791.000000	2.576964
792.000000	2.641134
793.000000	2.762335
794.000000	2.826650
795.000000	2.930232
796.000000	2.959635
797.000000	3.137382
798.000000	3.241823
799.000000	3.220040
800.000000	3.323342
801.000000	3.321115
802.000000	3.460861
803.000000	3.564641
804.000000	3.500807
805.000000	3.480981
806.000000	3.481093
807.000000	3.480462
808.000000	3.384364
809.000000	3.373203
810.000000	3.387742
811.000000	3.413454
812.000000	3.320305
813.000000	3.233590
814.000000	3.209366
815.000000	3.348685
816.000000	3.318017
817.000000	3.325802
818.000000	3.295812
819.000000	3.155140
820.000000	3.244655
821.000000	3.273964
822.000000	3.320368
823.000000	3.294307
824.000000	3.386492
825.000000	3.392237
826.000000	3.529393
827.000000	3.676758
828.000000	3.673348
829.000000	3.723129
830.000000	3.823428
831.000000	3.819052
832.000000	4.003612
833.000000	4.200182
834.000000	4.319938
835.000000	4.509206
836.000000	4.579577
837.000000	4.766465
838.000000	4.678157
839.000000	4.712749
840.000000	4.954009
841.000000	5.126612
842.000000	5.183242
843.000000	5.297422
844.000000	5.304045
845.000000	5.379592
846.000000	5.395341
847.000000	5.631182
848.000000	5.661764
849.000000	5.532803
850.000000	5.627353
851.000000	5.821316
852.000000	5.456462
853.000000	6.025594
854.000000	5.700176
855.000000	5.814140
856.000000	5.836920
857.000000	5.546729
858.000000	5.296856
859.000000	5.719835
860.000000	5.572623
861.000000	5.433715
862.000000	5.347637
863.000000	5.218955
864.000000	5.120858
865.000000	5.019237
866.000000	4.939931
867.000000	4.846753
868.000000	4.747703
869.000000	4.661452
870.000000	4.586316
871.000000	4.489703
872.000000	4.393828
873.000000	4.299384
874.000000	4.225767
875.000000	4.120475
876.000000	4.034583
877.000000	3.972508
878.000000	3.887633
879.000000	3.784712
880.000000	3.707793
881.000000	3.645128
882.000000	3.544391
883.000000	3.483112
884.000000	3.434582
885.000000	3.368196
886.000000	3.284733
887.000000	3.229975
888.000000	3.208329
889.000000	3.198431
890.000000	3.172726
891.000000	3.152034
892.000000	3.127581
893.000000	3.118806
894.000000	3.109477
895.000000	3.084760
896.000000	3.073857
897.000000	3.085460
898.000000	3.095049
899.000000	3.119205
900.000000	3.129505
901.000000	3.148518
902.000000	3.160700
903.000000	3.186327
904.000000	3.193860
905.000000	3.215718
906.000000	3.206244
907.000000	3.231123
908.000000	3.242575
909.000000	3.237851
910.000000	3.225193
911.000000	3.208463
912.000000	3.203920
913.000000	3.181912
914.000000	3.155778
915.000000	3.166760
916.000000	3.141250
917.000000	3.104802
918.000000	3.108376
919.000000	3.060965
920.000000	3.076962
921.000000	3.053393
922.000000	3.034608
923.000000	3.017323
924.000000	3.002885
925.000000	2.997785
926.000000	2.995033
927.000000	2.990129
928.000000	2.988400
929.000000	2.981830
930.000000	2.996534
931.000000	2.987454
932.000000	2.998395
933.000000	3.009260
934.000000	3.013746
935.000000	3.017538
936.000000	3.025286
937.000000	2.989350
938.000000	3.017704
939.000000	3.012456
940.000000	3.009972
941.000000	3.022173
942.000000	3.021526
943.000000	3.023876
944.000000	3.019735
945.000000	3.007922
946.000000	3.020475
947.000000	3.038159
948.000000	3.017317
949.000000	3.030177
950.000000	3.022141
951.000000	3.033480
952.000000	3.042351
953.000000	3.065281
954.000000	3.068183
955.000000	3.081812
956.000000	3.109819
957.000000	3.113475
958.000000	3.125403
959.000000	3.132550
960.000000	3.165423
961.000000	3.210912
962.000000	3.232253
963.000000	3.235906
964.000000	3.245642
965.000000	3.270770
966.000000	3.312938
967.000000	3.319142
968.000000	3.336344
969.000000	3.362480
970.000000	3.371957
971.000000	3.393047
972.000000	3.422916
973.000000	3.434253
974.000000	3.454010
975.000000	3.481167
976.000000	3.510022
977.000000	3.538828
978.000000	3.562673
979.000000	3.572913
980.000000	3.588273
981.000000	3.626255
982.000000	3.652677
983.000000	3.675184
984.000000	3.706843
985.000000	3.740764
986.000000	3.758178
987.000000	3.780156
988.000000	3.804075
989.000000	3.842269
990.000000	3.875066
991.000000	3.883527
992.000000	3.896214
993.000000	3.945024
994.000000	3.983063
995.000000	4.005112
996.000000	4.028947
997.000000	4.054078
998.000000	4.091967
999.000000	4.128101
1000.000000	4.151898
1001.000000	4.170667
1002.000000	4.195526
1003.000000	4.227340
1004.000000	4.259580
1005.000000	4.289993
1006.000000	4.312589
1007.000000	4.338767
1008.000000	4.373531
1009.000000	4.412600
1010.000000	4.445558
1011.000000	4.478325
1012.000000	4.506581
1013.000000	4.522555
1014.000000	4.549011
1015.000000	4.569679
1016.000000	4.584195
1017.000000	4.600148
1018.000000	4.601864
1019.000000	4.599838
1020.000000	4.607246
1021.000000	4.614704
1022.000000	4.611177
1023.000000	4.612834
1024.000000	4.615340
1025.000000	4.614576
1026.000000	4.610105
1027.000000	4.602635
1028.000000	4.610853
1029.000000	4.623022
1030.000000	4.622889
1031.000000	4.630578
1032.000000	4.637302
1033.000000	4.637475
1034.000000	4.643900
1035.000000	4.661069
1036.000000	4.669422
1037.000000	4.668560
1038.000000	4.679102
1039.000000	4.694456
1040.000000	4.700722
1041.000000	4.714690
1042.000000	4.727303
1043.000000	4.738025
1044.000000	4.745990
1045.000000	4.750069
1046.000000	4.755747
1047.000000	4.761348
1048.000000	4.767403
1049.000000	4.773020
1050.000000	4.771163
1051.000000	4.772852
1052.000000	4.783481
1053.000000	4.782598
1054.000000	4.772348
1055.000000	4.770940
1056.000000	4.772244
1057.000000	4.762724
1058.000000	4.761402
1059.000000	4.762780
1060.000000	4.757937
1061.000000	4.757983
1062.000000	4.754171
1063.000000	4.744676
1064.000000	4.742835
1065.000000	4.741233
1066.000000	4.746196
1067.000000	4.751828
1068.000000	4.749756
1069.000000	4.753275
1070.000000	4.751472
1071.000000	4.749881
1072.000000	4.751331
1073.000000	4.761365
1074.000000	4.762954
1075.000000	4.759506
1076.000000	4.754679
1077.000000	4.750625
1078.000000	4.752961
1079.000000	4.758247
1080.000000	4.753040
1081.000000	4.751387
1082.000000	4.748371
1083.000000	4.756401
1084.000000	4.749262
1085.000000	4.742718
1086.000000	4.723117
1087.000000	4.723098
1088.000000	4.715118
1089.000000	4.713870
1090.000000	4.698252
1091.000000	4.699955
1092.000000	4.701752
1093.000000	4.694592
1094.000000	4.684881
1095.000000	4.680160
1096.000000	4.680268
1097.000000	4.675938
1098.000000	4.672981
1099.000000	4.676768
1100.000000	4.686531
1101.000000	4.683715
1102.000000	4.679960
1103.000000	4.678401
1104.000000	4.683376
1105.000000	4.694442
1106.000000	4.706419
1107.000000	4.719205
1108.000000	4.716576
1109.000000	4.719836
1110.000000	4.725853
1111.000000	4.734454
1112.000000	4.742060
1113.000000	4.757919
1114.000000	4.761661
1115.000000	4.758524
1116.000000	4.765134
1117.000000	4.792383
1118.000000	4.807681
1119.000000	4.824953
1120.000000	4.848043
1121.000000	4.879912
1122.000000	4.915423
1123.000000	4.964115
1124.000000	5.002912
1125.000000	5.038263
1126.000000	5.064875
1127.000000	5.119588
1128.000000	5.168781
1129.000000	5.250006
1130.000000	5.352072
1131.000000	5.444882
1132.000000	5.598303
1133.000000	5.719500
1134.000000	5.874709
1135.000000	6.049648
1136.000000	6.261525
1137.000000	6.451835
1138.000000	6.626292
1139.000000	6.820633
1140.000000	7.005450
1141.000000	7.212971
1142.000000	7.398209
1143.000000	7.576843
1144.000000	7.739986
1145.000000	7.902817
1146.000000	8.020189
1147.000000	8.091806
1148.000000	8.090086
1149.000000	8.048728
1150.000000	8.015690
1151.000000	7.982386
1152.000000	7.938484
1153.000000	7.915475
1154.000000	7.926261
1155.000000	7.952978
1156.000000	8.034766
1157.000000	8.129277
1158.000000	8.243140
1159.000000	8.406494
1160.000000	8.552263
1161.000000	8.704279
1162.000000	8.883983
1163.000000	9.034564
1164.000000	9.215048
1165.000000	9.375362
1166.000000	9.546875
1167.000000	9.709954
1168.000000	9.857135
1169.000000	10.026666
1170.000000	10.182980
1171.000000	10.342839
1172.000000	10.512796
1173.000000	10.669792
1174.000000	10.830534
1175.000000	10.962714
1176.000000	11.103811
1177.000000	11.265542
1178.000000	11.437592
1179.000000	11.649738
1180.000000	11.889548
1181.000000	12.140207
1182.000000	12.422499
1183.000000	12.661747
1184.000000	12.859283
1185.000000	12.990578
1186.000000	13.061218
1187.000000	13.059769
1188.000000	12.984555
1189.000000	12.863321
1190.000000	12.680493
1191.000000	12.470871
1192.000000	12.237109
1193.000000	12.029512
1194.000000	11.839011
1195.000000	11.690137
1196.000000	11.588935
1197.000000	11.528934
1198.000000	11.479162
1199.000000	11.466123
1200.000000	11.456250
1201.000000	11.462520
1202.000000	11.492875
1203.000000	11.525863
1204.000000	11.556681
1205.000000	11.576011
1206.000000	11.599967
1207.000000	11.631599
1208.000000	11.636725
1209.000000	11.632770
1210.000000	11.636552
1211.000000	11.599291
1212.000000	11.568222
1213.000000	11.543168
1214.000000	11.512659
1215.000000	11.467401
1216.000000	11.414997
1217.000000	11.355854
1218.000000	11.316207
1219.000000	11.262612
1220.000000	11.192794
1221.000000	11.105754
1222.000000	11.018675
1223.000000	10.945108
1224.000000	10.849594
1225.000000	10.767436
1226.000000	10.678741
1227.000000	10.580487
1228.000000	10.488347
1229.000000	10.398064
1230.000000	10.312699
1231.000000	10.203636
1232.000000	10.108256
1233.000000	10.017633
1234.000000	9.925799
1235.000000	9.835221
1236.000000	9.747988
1237.000000	9.668198
1238.000000	9.579626
1239.000000	9.496613
1240.000000	9.415324
1241.000000	9.340605
1242.000000	9.272285
1243.000000	9.208955
1244.000000	9.155450
1245.000000	9.083038
1246.000000	9.031500
1247.000000	8.982980
1248.000000	8.949982
1249.000000	8.914223
1250.000000	8.875324
1251.000000	8.840519
1252.000000	8.812644
1253.000000	8.784945
1254.000000	8.751620
1255.000000	8.728003
1256.000000	8.694327
1257.000000	8.660947
1258.000000	8.634680
1259.000000	8.595632
1260.000000	8.560136
1261.000000	8.538005
1262.000000	8.508438
1263.000000	8.477060
1264.000000	8.441931
1265.000000	8.415317
1266.000000	8.382825
1267.000000	8.353277
1268.000000	8.323991
1269.000000	8.287564
1270.000000	8.253504
1271.000000	8.224214
1272.000000	8.186318
1273.000000	8.150842
1274.000000	8.120405
1275.000000	8.093827
1276.000000	8.055720
1277.000000	8.011690
1278.000000	7.990999
1279.000000	7.965052
1280.000000	7.923395
1281.000000	7.887308
1282.000000	7.856950
1283.000000	7.821066
1284.000000	7.790592
1285.000000	7.763170
1286.000000	7.736373
1287.000000	7.707567
1288.000000	7.676631
1289.000000	7.651842
1290.000000	7.631036
1291.000000	7.619545
1292.000000	7.607449
1293.000000	7.594721
1294.000000	7.587675
1295.000000	7.575086
1296.000000	7.562070
1297.000000	7.561729
1298.000000	7.555581
1299.000000	7.542744
1300.000000	7.525454
1301.000000	7.518905
1302.000000	7.513831
1303.000000	7.503152
1304.000000	7.504020
1305.000000	7.507299
1306.000000	7.505236
1307.000000	7.507969
1308.000000	7.525597
1309.000000	7.532810
1310.000000	7.534764
1311.000000	7.545568
1312.000000	7.561798
1313.000000	7.583578
1314.000000	7.605158
1315.000000	7.618389
1316.000000	7.640245
1317.000000	7.666964
1318.000000	7.690997
1319.000000	7.717406
1320.000000	7.750087
1321.000000	7.784272
1322.000000	7.813350
1323.000000	7.845434
1324.000000	7.888169
1325.000000	7.932121
1326.000000	7.975594
1327.000000	8.016430
1328.000000	8.065138
1329.000000	8.121896
1330.000000	8.176286
1331.000000	8.237132
1332.000000	8.294656
1333.000000	8.350027
1334.000000	8.417101
1335.000000	8.488250
1336.000000	8.566208
1337.000000	8.644476
1338.000000	8.719878
1339.000000	8.798322
1340.000000	8.904678
1341.000000	9.004540
1342.000000	9.110497
1343.000000	9.211336
1344.000000	9.316624
1345.000000	9.443614
1346.000000	9.567608
1347.000000	9.699513
1348.000000	9.863496
1349.000000	10.017213
1350.000000	10.186676
1351.000000	10.398356
1352.000000	10.653080
1353.000000	10.909334
1354.000000	11.179962
1355.000000	11.470315
1356.000000	11.672602
1357.000000	11.786511
1358.000000	11.872782
1359.000000	11.902141
1360.000000	11.863304
1361.000000	11.909783
1362.000000	11.958403
1363.000000	12.009150
1364.000000	12.025154
1365.000000	12.077684
1366.000000	12.133832
1367.000000	12.199121
1368.000000	12.289604
1369.000000	12.400319
1370.000000	12.490715
1371.000000	12.613975
1372.000000	12.758140
1373.000000	12.875596
1374.000000	12.990599
1375.000000	13.084165
1376.000000	13.151740
1377.000000	13.164296
1378.000000	13.153744
1379.000000	13.133862
1380.000000	13.112612
1381.000000	13.111543
1382.000000	13.132049
1383.000000	13.171153
1384.000000	13.193345
1385.000000	13.291305
1386.000000	13.280929
1387.000000	13.287301
1388.000000	13.274406
1389.000000	13.239130
1390.000000	13.174283
1391.000000	13.132703
1392.000000	13.092107
1393.000000	13.023044
1394.000000	12.941222
1395.000000	12.900962
1396.000000	12.857256
1397.000000	12.761971
1398.000000	12.699077
1399.000000	12.704231
1400.000000	12.733304
1401.000000	12.735903
1402.000000	12.741069
1403.000000	12.756008
1404.000000	12.809209
1405.000000	12.808110
1406.000000	12.818968
1407.000000	12.796137
1408.000000	12.803357
1409.000000	12.769748
1410.000000	12.726151
1411.000000	12.626323
1412.000000	12.526447
1413.000000	12.449051
1414.000000	12.372587
1415.000000	12.273645
1416.000000	12.166572
1417.000000	12.107531
1418.000000	12.066410
1419.000000	12.005167
1420.000000	11.960005
1421.000000	11.892295
1422.000000	11.843355
1423.000000	11.814463
1424.000000	11.795003
1425.000000	11.770836
1426.000000	11.719871
1427.000000	11.704189
1428.000000	11.691397
1429.000000	11.671896
1430.000000	11.636756
1431.000000	11.615949
1432.000000	11.585194
1433.000000	11.554461
1434.000000	11.523530
1435.000000	11.503030
1436.000000	11.467117
1437.000000	11.462988
1438.000000	11.460194
1439.000000	11.445176
1440.000000	11.427674
1441.000000	11.416259
1442.000000	11.444999
1443.000000	11.430419
1444.000000	11.434474
1445.000000	11.451562
1446.000000	11.455064
1447.000000	11.441997
1448.000000	11.444426
1449.000000	11.456936
1450.000000	11.470253
1451.000000	11.484475
1452.000000	11.475282
1453.000000	11.468839
1454.000000	11.459975
1455.000000	11.458597
1456.000000	11.469469
1457.000000	11.452898
1458.000000	11.449400
1459.000000	11.446320
1460.000000	11.437975
1461.000000	11.430007
1462.000000	11.426860
1463.000000	11.412793
1464.000000	11.405814
1465.000000	11.394179
1466.000000	11.377403
1467.000000	11.360034
1468.000000	11.346994
1469.000000	11.326896
1470.000000	11.326050
1471.000000	11.298486
1472.000000	11.284775
1473.000000	11.254519
1474.000000	11.239139
1475.000000	11.228630
1476.000000	11.231000
1477.000000	11.215083
1478.000000	11.213931
1479.000000	11.207473
1480.000000	11.210865
1481.000000	11.222863
1482.000000	11.226964
1483.000000	11.233861
1484.000000	11.235812
1485.000000	11.247983
1486.000000	11.239205
1487.000000	11.253240
1488.000000	11.256568
1489.000000	11.256533
1490.000000	11.268296
1491.000000	11.269477
1492.000000	11.267569
1493.000000	11.277960
1494.000000	11.284328
1495.000000	11.295504
1496.000000	11.308451
1497.000000	11.322088
1498.000000	11.336910
1499.000000	11.344458
1500.000000	11.368727
1501.000000	11.384210
1502.000000	11.407558
1503.000000	11.432536
1504.000000	11.462380
1505.000000	11.491817
1506.000000	11.522076
1507.000000	11.549214
1508.000000	11.575906
1509.000000	11.606365
1510.000000	11.635466
1511.000000	11.670912
1512.000000	11.684906
1513.000000	11.709601
1514.000000	11.744724
1515.000000	11.779005
1516.000000	11.805031
1517.000000	11.823168
1518.000000	11.848270
1519.000000	11.878823
1520.000000	11.900947
1521.000000	11.929494
1522.000000	11.955435
1523.000000	11.973627
1524.000000	11.991631
1525.000000	12.024697
1526.000000	12.045966
1527.000000	12.064822
1528.000000	12.087147
1529.000000	12.115578
1530.000000	12.127139
1531.000000	12.149286
1532.000000	12.169275
1533.000000	12.187437
1534.000000	12.213634
1535.000000	12.231281
1536.000000	12.247881
1537.000000	12.261832
1538.000000	12.275415
1539.000000	12.288793
1540.000000	12.312983
1541.000000	12.324972
1542.000000	12.339077
1543.000000	12.369472
1544.000000	12.400816
1545.000000	12.419443
1546.000000	12.450201
1547.000000	12.494554
1548.000000	12.534406
1549.000000	12.578429
1550.000000	12.624274
1551.000000	12.671252
1552.000000	12.718648
1553.000000	12.756951
1554.000000	12.800146
1555.000000	12.842390
1556.000000	12.877724
1557.000000	12.907260
1558.000000	12.944399
1559.000000	12.968079
1560.000000	12.989714
1561.000000	13.008475
1562.000000	13.023625
1563.000000	13.035027
1564.000000	13.040315
1565.000000	13.054898
1566.000000	13.065427
1567.000000	13.070360
1568.000000	13.073066
1569.000000	13.070323
1570.000000	13.067375
1571.000000	13.070506
1572.000000	13.078731
1573.000000	13.084449
1574.000000	13.091499
1575.000000	13.100993
1576.000000	13.114141
1577.000000	13.125431
1578.000000	13.137329
1579.000000	13.150166
1580.000000	13.167697
1581.000000	13.183863
1582.000000	13.199981
1583.000000	13.225012
1584.000000	13.245121
1585.000000	13.262609
1586.000000	13.276682
1587.000000	13.294239
1588.000000	13.313630
1589.000000	13.333070
1590.000000	13.349641
1591.000000	13.365003
1592.000000	13.382618
1593.000000	13.398980
1594.000000	13.420636
1595.000000	13.433589
1596.000000	13.442360
1597.000000	13.456857
1598.000000	13.470757
1599.000000	13.493258
1600.000000	13.508842
1601.000000	13.521584
1602.000000	13.539005
1603.000000	13.562057
1604.000000	13.570203
1605.000000	13.570915
1606.000000	13.579519
1607.000000	13.604112
1608.000000	13.615672
1609.000000	13.624702
1610.000000	13.617931
1611.000000	13.617782
1612.000000	13.624155
1613.000000	13.616275
1614.000000	13.610782
1615.000000	13.602656
1616.000000	13.593741
1617.000000	13.583352
1618.000000	13.561367
1619.000000	13.552570
1620.000000	13.537185
1621.000000	13.514913
1622.000000	13.490262
1623.000000	13.476536
1624.000000	13.469600
1625.000000	13.457428
1626.000000	13.441969
1627.000000	13.421384
1628.000000	13.410116
1629.000000	13.404010
1630.000000	13.393628
1631.000000	13.374840
1632.000000	13.365199
1633.000000	13.347424
1634.000000	13.330822
1635.000000	13.318151
1636.000000	13.308982
1637.000000	13.297838
1638.000000	13.271867
1639.000000	13.236330
1640.000000	13.210378
1641.000000	13.188570
1642.000000	13.161164
1643.000000	13.147282
1644.000000	13.130295
1645.000000	13.101195
1646.000000	13.082109
1647.000000	13.063318
1648.000000	13.058142
1649.000000	13.034443
1650.000000	13.016397
1651.000000	13.003320
1652.000000	12.990748
1653.000000	12.974398
1654.000000	12.952719
1655.000000	12.939708
1656.000000	12.929607
1657.000000	12.903160
1658.000000	12.872753
1659.000000	12.837974
1660.000000	12.812123
1661.000000	12.782905
1662.000000	12.740942
1663.000000	12.704783
1664.000000	12.664448
1665.000000	12.624324
1666.000000	12.596795
1667.000000	12.567797
1668.000000	12.527098
1669.000000	12.505320
1670.000000	12.467381
1671.000000	12.472006
1672.000000	12.451721
1673.000000	12.458983
1674.000000	12.495723
1675.000000	12.534912
1676.000000	12.614733
1677.000000	12.721349
1678.000000	12.823823
1679.000000	12.966895
1680.000000	13.057379
1681.000000	13.167703
1682.000000	13.239104
1683.000000	13.241048
1684.000000	13.184099
1685.000000	13.065142
1686.000000	12.956069
1687.000000	12.844692
1688.000000	12.803298
1689.000000	12.780221
1690.000000	12.849358
1691.000000	12.929725
1692.000000	13.029393
1693.000000	13.147190
1694.000000	13.221355
1695.000000	13.280012
1696.000000	13.289959
1697.000000	13.277613
1698.000000	13.242786
1699.000000	13.208669
1700.000000	13.164406
1701.000000	13.110438
1702.000000	13.085613
1703.000000	13.063988
1704.000000	13.055936
1705.000000	13.029378
1706.000000	13.003412
1707.000000	12.971825
1708.000000	12.948113
1709.000000	12.911929
1710.000000	12.869261
1711.000000	12.821128
1712.000000	12.763577
1713.000000	12.722661
1714.000000	12.648622
1715.000000	12.565458
1716.000000	12.474485
1717.000000	12.386908
1718.000000	12.291060
1719.000000	12.181550
1720.000000	12.084094
1721.000000	11.995998
1722.000000	11.920707
1723.000000	11.888003
1724.000000	11.860965
1725.000000	11.884397
1726.000000	11.930680
1727.000000	11.979986
1728.000000	12.052319
1729.000000	12.121069
1730.000000	12.201338
1731.000000	12.281753
1732.000000	12.344204
1733.000000	12.390667
1734.000000	12.433094
1735.000000	12.450024
1736.000000	12.449942
1737.000000	12.443223
1738.000000	12.393737
1739.000000	12.359287
1740.000000	12.313372
1741.000000	12.274069
1742.000000	12.225178
1743.000000	12.189228
1744.000000	12.146247
1745.000000	12.119730
1746.000000	12.124503
1747.000000	12.118138
1748.000000	12.113629
1749.000000	12.101957
1750.000000	12.094388
1751.000000	12.088643
1752.000000	12.076903
1753.000000	12.079043
1754.000000	12.087010
1755.000000	12.091199
1756.000000	12.101412
1757.000000	12.134248
1758.000000	12.160880
1759.000000	12.193734
1760.000000	12.232633
1761.000000	12.256045
1762.000000	12.273711
1763.000000	12.291061
1764.000000	12.308837
1765.000000	12.302568
1766.000000	12.280371
1767.000000	12.265359
1768.000000	12.240013
1769.000000	12.221046
1770.000000	12.192688
1771.000000	12.167730
1772.000000	12.145422
1773.000000	12.108025
1774.000000	12.077531
1775.000000	12.052913
1776.000000	12.029440
1777.000000	11.999143
1778.000000	11.968400
1779.000000	11.953023
1780.000000	11.935082
1781.000000	11.915754
1782.000000	11.887020
1783.000000	11.870428
1784.000000	11.842327
1785.000000	11.803019
1786.000000	11.780922
1787.000000	11.740709
1788.000000	11.704951
1789.000000	11.676163
1790.000000	11.660971
1791.000000	11.640593
1792.000000	11.630657
1793.000000	11.603605
1794.000000	11.584329
1795.000000	11.583628
1796.000000	11.577924
1797.000000	11.563342
1798.000000	11.557770
1799.000000	11.563148
1800.000000	11.554694
1801.000000	11.555909
1802.000000	11.539192
1803.000000	11.522793
1804.000000	11.511860
1805.000000	11.516991
1806.000000	11.516135
1807.000000	11.503287
1808.000000	11.489627
1809.000000	11.486701
1810.000000	11.507454
1811.000000	11.518547
1812.000000	11.515273
1813.000000	11.509895
1814.000000	11.525665
1815.000000	11.531281
1816.000000	11.532835
1817.000000	11.543643
1818.000000	11.562121
1819.000000	11.581566
1820.000000	11.591532
1821.000000	11.567429
1822.000000	11.514925
1823.000000	11.477614
1824.000000	11.469413
1825.000000	11.483694
1826.000000	11.484110
1827.000000	11.466007
1828.000000	11.439205
1829.000000	11.415773
1830.000000	11.396294
1831.000000	11.368605
1832.000000	11.332648
1833.000000	11.329989
1834.000000	11.351442
1835.000000	11.374096
1836.000000	11.379536
1837.000000	11.356802
1838.000000	11.339401
1839.000000	11.337597
1840.000000	11.345606
1841.000000	11.328950
1842.000000	11.309032
1843.000000	11.258196
1844.000000	11.234572
1845.000000	11.280940
1846.000000	11.326701
1847.000000	11.332345
1848.000000	11.254494
1849.000000	11.153272
1850.000000	11.067006
1851.000000	11.044080
1852.000000	11.049597
1853.000000	11.013821
1854.000000	10.960957
1855.000000	10.909191
1856.000000	10.851351
1857.000000	10.810997
1858.000000	10.787863
1859.000000	10.741561
1860.000000	10.666428
1861.000000	10.600316
1862.000000	10.545423
1863.000000	10.502215
1864.000000	10.482323
1865.000000	10.482410
1866.000000	10.487350
1867.000000	10.494844
1868.000000	10.503072
1869.000000	10.530519
1870.000000	10.490852
1871.000000	10.430303
1872.000000	10.387200
1873.000000	10.347889
1874.000000	10.299380
1875.000000	10.268341
1876.000000	10.259788
1877.000000	10.259653
1878.000000	10.268905
1879.000000	10.284448
1880.000000	10.290737
1881.000000	10.327856
1882.000000	10.343548
1883.000000	10.332797
1884.000000	10.282464
1885.000000	10.188194
1886.000000	10.071303
1887.000000	9.947217
1888.000000	9.827541
1889.000000	9.682164
1890.000000	9.529682
1891.000000	9.365762
1892.000000	9.151138
1893.000000	8.924162
1894.000000	8.725977
1895.000000	8.565307
1896.000000	8.435746
1897.000000	8.336177
1898.000000	8.219857
1899.000000	8.024786
1900.000000	7.828352
1901.000000	7.632196
1902.000000	7.469053
1903.000000	7.345360
1904.000000	7.228407
1905.000000	7.090596
1906.000000	6.895893
1907.000000	6.717720
1908.000000	6.590795
1909.000000	6.496611
1910.000000	6.462062
1911.000000	6.426011
1912.000000	6.345949
1913.000000	6.252687
1914.000000	6.116763
1915.000000	6.000614
1916.000000	5.923725
1917.000000	5.902041
1918.000000	5.883675
1919.000000	5.840916
1920.000000	5.781606
1921.000000	5.722148
1922.000000	5.634538
1923.000000	5.572751
1924.000000	5.534184
1925.000000	5.529990
1926.000000	5.507444
1927.000000	5.467157
1928.000000	5.442345
1929.000000	5.422080
1930.000000	5.384940
1931.000000	5.364069
1932.000000	5.340350
1933.000000	5.356183
1934.000000	5.337581
1935.000000	5.346715
1936.000000	5.353519
1937.000000	5.353505
1938.000000	5.350687
1939.000000	5.340890
1940.000000	5.342670
1941.000000	5.333207
1942.000000	5.341053
1943.000000	5.355619
1944.000000	5.369301
1945.000000	5.397737
1946.000000	5.393680
1947.000000	5.419239
1948.000000	5.448209
1949.000000	5.451683
1950.000000	5.488335
1951.000000	5.497612
1952.000000	5.513445
1953.000000	5.547016
1954.000000	5.564190
1955.000000	5.591328
1956.000000	5.612409
1957.000000	5.644886
1958.000000	5.655429
1959.000000	5.688663
1960.000000	5.728483
1961.000000	5.733631
1962.000000	5.773212
1963.000000	5.791609
1964.000000	5.818454
1965.000000	5.834744
1966.000000	5.849513
1967.000000	5.888629
1968.000000	5.897719
1969.000000	5.920671
1970.000000	5.951052
1971.000000	5.977174
1972.000000	5.994705
1973.000000	6.029192
1974.000000	6.056134
1975.000000	6.073759
1976.000000	6.106031
1977.000000	6.125043
1978.000000	6.156120
1979.000000	6.183503
1980.000000	6.196964
1981.000000	6.248220
1982.000000	6.281761
1983.000000	6.287124
1984.000000	6.330336
1985.000000	6.357245
1986.000000	6.381152
1987.000000	6.426557
1988.000000	6.453074
1989.000000	6.489818
1990.000000	6.525796
1991.000000	6.563593
1992.000000	6.592819
1993.000000	6.607225
1994.000000	6.649562
1995.000000	6.682582
1996.000000	6.722126
1997.000000	6.754231
1998.000000	6.786655
1999.000000	6.819833
2000.000000	6.833209
2001.000000	6.872479
2002.000000	6.907183
2003.000000	6.926453
2004.000000	6.958689
2005.000000	6.968741
2006.000000	6.995041
2007.000000	7.019713
2008.000000	7.030516
2009.000000	7.056015
2010.000000	7.074494
2011.000000	7.103906
2012.000000	7.116123
2013.000000	7.121963
2014.000000	7.124041
2015.000000	7.135677
2016.000000	7.144244
2017.000000	7.167792
2018.000000	7.170950
2019.000000	7.182036
2020.000000	7.186068
2021.000000	7.186232
2022.000000	7.199699
2023.000000	7.188261
2024.000000	7.182228
2025.000000	7.170830
2026.000000	7.172605
2027.000000	7.157155
2028.000000	7.143612
2029.000000	7.135510
2030.000000	7.118597
2031.000000	7.094735
2032.000000	7.066122
2033.000000	7.046415
2034.000000	7.045451
2035.000000	7.003780
2036.000000	6.968719
2037.000000	6.938409
2038.000000	6.898833
2039.000000	6.869926
2040.000000	6.833635
2041.000000	6.787762
2042.000000	6.728012
2043.000000	6.695804
2044.000000	6.647908
2045.000000	6.596837
2046.000000	6.550882
2047.000000	6.511407
2048.000000	6.472610
2049.000000	6.440231
2050.000000	6.409170
2051.000000	6.385186
2052.000000	6.365303
2053.000000	6.350324
2054.000000	6.356399
2055.000000	6.361321
2056.000000	6.383227
2057.000000	6.407753
2058.000000	6.438493
2059.000000	6.471585
2060.000000	6.516512
2061.000000	6.564175
2062.000000	6.623703
2063.000000	6.680962
2064.000000	6.739700
2065.000000	6.796170
2066.000000	6.849735
2067.000000	6.918979
2068.000000	6.971382
2069.000000	7.034370
2070.000000	7.092794
2071.000000	7.147464
2072.000000	7.207040
2073.000000	7.257593
2074.000000	7.311960
2075.000000	7.355687
2076.000000	7.390819
2077.000000	7.429885
2078.000000	7.464817
2079.000000	7.493899
2080.000000	7.517789
2081.000000	7.545988
2082.000000	7.560583
2083.000000	7.577764
2084.000000	7.597572
2085.000000	7.607346
2086.000000	7.601992
2087.000000	7.598601
2088.000000	7.596469
2089.000000	7.591949
2090.000000	7.586493
2091.000000	7.582767
2092.000000	7.574931
2093.000000	7.560282
2094.000000	7.551853
2095.000000	7.544093
2096.000000	7.532941
2097.000000	7.523165
2098.000000	7.513933
2099.000000	7.502612
2100.000000	7.495797
2101.000000	7.496596
2102.000000	7.502086
2103.000000	7.504342
2104.000000	7.493574
2105.000000	7.492629
2106.000000	7.497105
2107.000000	7.486473
2108.000000	7.489002
2109.000000	7.493871
2110.000000	7.484241
2111.000000	7.482008
2112.000000	7.471058
2113.000000	7.459061
2114.000000	7.463126
2115.000000	7.447208
2116.000000	7.425834
2117.000000	7.414966
2118.000000	7.402546
2119.000000	7.385689
2120.000000	7.364218
2121.000000	7.351272
2122.000000	7.332916
2123.000000	7.313025
2124.000000	7.286630
2125.000000	7.258447
2126.000000	7.235028
2127.000000	7.209482
2128.000000	7.180755
2129.000000	7.147483
2130.000000	7.116184
2131.000000	7.082754
2132.000000	7.047287
2133.000000	7.001577
2134.000000	6.949934
2135.000000	6.906591
2136.000000	6.877944
2137.000000	6.834907
2138.000000	6.794872
2139.000000	6.738855
2140.000000	6.695682
2141.000000	6.649509
2142.000000	6.603502
2143.000000	6.553691
2144.000000	6.494162
2145.000000	6.451620
2146.000000	6.396853
2147.000000	6.348832
2148.000000	6.303505
2149.000000	6.243621
2150.000000	6.199146
2151.000000	6.158178
2152.000000	6.121849
2153.000000	6.062649
2154.000000	6.007080
2155.000000	5.970599
2156.000000	5.931902
2157.000000	5.890474
2158.000000	5.839355
2159.000000	5.812603
2160.000000	5.770876
2161.000000	5.743644
2162.000000	5.701410
2163.000000	5.677340
2164.000000	5.665687
2165.000000	5.639913
2166.000000	5.618731
2167.000000	5.621258
2168.000000	5.605581
2169.000000	5.589374
2170.000000	5.590703
2171.000000	5.577486
2172.000000	5.569277
2173.000000	5.564887
2174.000000	5.562486
2175.000000	5.554235
2176.000000	5.554973
2177.000000	5.571575
2178.000000	5.575163
2179.000000	5.576968
2180.000000	5.576265
2181.000000	5.589286
2182.000000	5.582733
2183.000000	5.602089
2184.000000	5.599995
2185.000000	5.610975
2186.000000	5.616805
2187.000000	5.608786
2188.000000	5.618693
2189.000000	5.635504
2190.000000	5.642638
2191.000000	5.657154
2192.000000	5.658428
2193.000000	5.669387
2194.000000	5.662857
2195.000000	5.687425
2196.000000	5.697719
2197.000000	5.699412
2198.000000	5.714265
2199.000000	5.744955
2200.000000	5.755550
2201.000000	5.771689
2202.000000	5.787745
2203.000000	5.800339
2204.000000	5.834977
2205.000000	5.843051
2206.000000	5.876157
2207.000000	5.891260
2208.000000	5.914056
2209.000000	5.939575
2210.000000	5.976638
2211.000000	6.003798
2212.000000	6.045080
2213.000000	6.072664
2214.000000	6.111418
2215.000000	6.166185
2216.000000	6.190027
2217.000000	6.239543
2218.000000	6.282276
2219.000000	6.334255
2220.000000	6.398671
2221.000000	6.439216
2222.000000	6.482706
2223.000000	6.530815
2224.000000	6.569327
2225.000000	6.620343
2226.000000	6.669188
2227.000000	6.703274
2228.000000	6.744303
2229.000000	6.790818
2230.000000	6.824187
2231.000000	6.850757
2232.000000	6.891707
2233.000000	6.922207
2234.000000	6.925760
2235.000000	6.974184
2236.000000	6.983806
2237.000000	7.012654
2238.000000	7.023858
2239.000000	7.025797
2240.000000	7.026706
2241.000000	7.038592
2242.000000	7.025150
2243.000000	7.017924
2244.000000	7.003790
2245.000000	6.985085
2246.000000	6.961880
2247.000000	6.928949
2248.000000	6.898426
2249.000000	6.870162
2250.000000	6.854550
2251.000000	6.818654
2252.000000	6.776051
2253.000000	6.703755
2254.000000	6.688685
2255.000000	6.652034
2256.000000	6.599974
2257.000000	6.557288
2258.000000	6.515860
2259.000000	6.477901
2260.000000	6.435998
2261.000000	6.390739
2262.000000	6.329865
2263.000000	6.294111
2264.000000	6.260383
2265.000000	6.224529
2266.000000	6.175697
2267.000000	6.145799
2268.000000	6.106334
2269.000000	6.074978
2270.000000	6.054697
2271.000000	6.046309
2272.000000	6.037475
2273.000000	6.017043
2274.000000	6.009890
2275.000000	6.002511
2276.000000	5.975926
2277.000000	5.980537
2278.000000	5.970262
2279.000000	5.953299
2280.000000	5.939829
2281.000000	5.940469
2282.000000	5.929411
2283.000000	5.899979
2284.000000	5.886680
2285.000000	5.864935
2286.000000	5.861489
2287.000000	5.833142
2288.000000	5.834667
2289.000000	5.819929
2290.000000	5.807641
2291.000000	5.793660
2292.000000	5.797710
2293.000000	5.790340
2294.000000	5.776014
2295.000000	5.773023
2296.000000	5.776908
2297.000000	5.765172
2298.000000	5.772589
2299.000000	5.769681
2300.000000	5.769311
2301.000000	5.770812
2302.000000	5.789053
2303.000000	5.798603
2304.000000	5.806667
2305.000000	5.792596
2306.000000	5.794699
2307.000000	5.799043
2308.000000	5.796354
2309.000000	5.809650
2310.000000	5.822800
2311.000000	5.827156
2312.000000	5.858101
2313.000000	5.873832
2314.000000	5.872830
2315.000000	5.894205
2316.000000	5.899264
2317.000000	5.911574
2318.000000	5.926831
2319.000000	5.942690
2320.000000	5.948941
2321.000000	5.941094
2322.000000	5.943688
2323.000000	5.931656
2324.000000	5.935699
2325.000000	5.921041
2326.000000	5.917704
2327.000000	5.919082
2328.000000	5.914275
2329.000000	5.887336
2330.000000	5.868051
2331.000000	5.870881
2332.000000	5.863816
2333.000000	5.855810
2334.000000	5.850201
2335.000000	5.858650
2336.000000	5.862179
2337.000000	5.861250
2338.000000	5.865058
2339.000000	5.875145
2340.000000	5.889350
2341.000000	5.902650
2342.000000	5.930245
2343.000000	5.942375
2344.000000	5.950729
2345.000000	5.970759
2346.000000	5.988749
2347.000000	6.011639
2348.000000	6.034342
2349.000000	6.040898
2350.000000	6.047743
2351.000000	6.061970
2352.000000	6.076143
2353.000000	6.089472
2354.000000	6.090813
2355.000000	6.080679
2356.000000	6.081022
2357.000000	6.084988
2358.000000	6.083322
2359.000000	6.081236
2360.000000	6.083020
2361.000000	6.075197
2362.000000	6.070055
2363.000000	6.065602
2364.000000	6.063689
2365.000000	6.061739
2366.000000	6.063952
2367.000000	6.068074
2368.000000	6.068418
2369.000000	6.065069
2370.000000	6.061479
2371.000000	6.071468
2372.000000	6.090196
2373.000000	6.099771
2374.000000	6.099366
2375.000000	6.106068
2376.000000	6.125612
2377.000000	6.141517
2378.000000	6.147031
2379.000000	6.161230
2380.000000	6.176433
2381.000000	6.183804
2382.000000	6.190642
2383.000000	6.195161
2384.000000	6.206495
2385.000000	6.215796
2386.000000	6.226838
2387.000000	6.240283
2388.000000	6.240465
2389.000000	6.245829
2390.000000	6.256008
2391.000000	6.262025
2392.000000	6.258479
2393.000000	6.263675
2394.000000	6.274746
2395.000000	6.281457
2396.000000	6.286343
2397.000000	6.288192
2398.000000	6.280972
2399.000000	6.292914
2400.000000	6.295330
2401.000000	6.277757
2402.000000	6.272558
2403.000000	6.272862
2404.000000	6.277136
2405.000000	6.272222
2406.000000	6.251347
2407.000000	6.238556
2408.000000	6.233403
2409.000000	6.233612
2410.000000	6.226055
2411.000000	6.207924
2412.000000	6.184956
2413.000000	6.180067
2414.000000	6.177861
2415.000000	6.151365
2416.000000	6.129960
2417.000000	6.105241
2418.000000	6.077487
2419.000000	6.045651
2420.000000	6.017501
2421.000000	6.003689
2422.000000	5.997281
2423.000000	5.974525
2424.000000	5.972072
2425.000000	5.971539
2426.000000	5.925149
2427.000000	5.884087
2428.000000	5.843200
2429.000000	5.805123
2430.000000	5.766595
2431.000000	5.726031
2432.000000	5.686983
2433.000000	5.647160
2434.000000	5.614415
2435.000000	5.570954
2436.000000	5.519117
2437.000000	5.471185
2438.000000	5.439377
2439.000000	5.405765
2440.000000	5.349339
2441.000000	5.305198
2442.000000	5.280969
2443.000000	5.216786
2444.000000	5.174110
2445.000000	5.137145
2446.000000	5.085084
2447.000000	5.042238
2448.000000	4.999034
2449.000000	4.960115
2450.000000	4.914693
2451.000000	4.878343
2452.000000	4.835944
2453.000000	4.802146
2454.000000	4.769101
2455.000000	4.734754
2456.000000	4.680973
2457.000000	4.658979
2458.000000	4.622978
2459.000000	4.576761
2460.000000	4.551362
2461.000000	4.520258
2462.000000	4.472929
2463.000000	4.473267
2464.000000	4.453523
2465.000000	4.409445
2466.000000	4.384661
2467.000000	4.366039
2468.000000	4.355563
2469.000000	4.324438
2470.000000	4.330655
2471.000000	4.308862
2472.000000	4.260159
2473.000000	4.268796
2474.000000	4.243419
2475.000000	4.212064
2476.000000	4.227101
2477.000000	4.212018
2478.000000	4.220936
2479.000000	4.177845
2480.000000	4.160687
2481.000000	4.156560
2482.000000	4.157839
2483.000000	4.146626
2484.000000	4.100708
2485.000000	4.145668
2486.000000	4.146364
2487.000000	4.181082
2488.000000	4.153707
2489.000000	4.117945
2490.000000	4.157613
2491.000000	4.134716
2492.000000	4.120639
2493.000000	4.118793
2494.000000	4.131801
2495.000000	4.152980
2496.000000	4.154477
2497.000000	4.170218
2498.000000	4.165467
2499.000000	4.145682
2500.000000	4.158396
