PE UV       SUBTECH     SPECTRUM    ASCII       PEDS        4.00        
   -1
CICIMAUCR0244-3.Sample.ASC
24/06/21
11:45:11.00
24/06/21
11:45:11.00
Vinicio Soto Monge
C. cupreomarginata. Sex M. Dorsal
250,000000
1
Lambda 1050
1050L1511233
PerkinElmer UV WinLab 6.3.2.0749 / 2.02.05 Lambda 900 UV/VIS/NIR, Aug  7 2015 09:38:08

0
0
3350/servo 860,8/2
0
0
UV/VIS
1
1
1
DoubleDePol,CommonBeamDepol,RBeamAtt,SBeamAtt,60mm sphere, WB InGaAs Detector
0
0
0
0
Program
Program
3350/servo 860,8/2
3350/0,2 860,8/0,2
3350/0,2 860,8/0,2
0
15.00
 
 
 
0
 
860,8
319,2
860,8
Front
100
on
S:100 R:100
0
0
0
0
 
0
 
 
 
0
 
 
0
0
0
0
0
 
 
 
 
0
0


0
0
#HDR
-1
-1
#GR
nm
%R
1.0
0.0
2500,000000
-1,000000
2251
8
73,398900
5,496100
#DATA
2482.000000	8.233948
2481.000000	8.251309
2480.000000	8.185416
2479.000000	8.178614
2478.000000	8.285322
2477.000000	8.307557
2476.000000	8.269483
2475.000000	8.251411
2474.000000	8.297201
2473.000000	8.267249
2472.000000	8.326136
2471.000000	8.324106
2470.000000	8.317710
2469.000000	8.340249
2468.000000	8.329995
2467.000000	8.368373
2466.000000	8.358524
2465.000000	8.416193
2464.000000	8.425635
2463.000000	8.424214
2462.000000	8.447058
2461.000000	8.495691
2460.000000	8.507468
2459.000000	8.551634
2458.000000	8.607069
2457.000000	8.644736
2456.000000	8.686262
2455.000000	8.710934
2454.000000	8.795203
2453.000000	8.826068
2452.000000	8.877442
2451.000000	8.930542
2450.000000	8.993592
2449.000000	9.044661
2448.000000	9.102229
2447.000000	9.172284
2446.000000	9.259295
2445.000000	9.307724
2444.000000	9.347321
2443.000000	9.415752
2442.000000	9.469258
2441.000000	9.539618
2440.000000	9.591297
2439.000000	9.662875
2438.000000	9.740545
2437.000000	9.779228
2436.000000	9.826845
2435.000000	9.897814
2434.000000	9.932538
2433.000000	10.010208
2432.000000	10.050921
2431.000000	10.104326
2430.000000	10.134480
2429.000000	10.197022
2428.000000	10.245046
2427.000000	10.277230
2426.000000	10.315507
2425.000000	10.383633
2424.000000	10.417341
2423.000000	10.464349
2422.000000	10.509835
2421.000000	10.547604
2420.000000	10.578266
2419.000000	10.611161
2418.000000	10.654616
2417.000000	10.667206
2416.000000	10.715026
2415.000000	10.751374
2414.000000	10.790462
2413.000000	10.817368
2412.000000	10.849248
2411.000000	10.879199
2410.000000	10.910877
2409.000000	10.940828
2408.000000	10.962454
2407.000000	10.986008
2406.000000	11.017990
2405.000000	11.050784
2404.000000	11.070887
2403.000000	11.097183
2402.000000	11.125612
2401.000000	11.143785
2400.000000	11.149573
2399.000000	11.144192
2398.000000	11.133429
2397.000000	11.143887
2396.000000	11.176376
2395.000000	11.197088
2394.000000	11.211912
2393.000000	11.231812
2392.000000	11.233233
2391.000000	11.253539
2390.000000	11.277094
2389.000000	11.276891
2388.000000	11.283592
2387.000000	11.301461
2386.000000	11.308060
2385.000000	11.313137
2384.000000	11.321158
2383.000000	11.322071
2382.000000	11.313238
2381.000000	11.318924
2380.000000	11.318112
2379.000000	11.302781
2378.000000	11.291714
2377.000000	11.290902
2376.000000	11.279429
2375.000000	11.261864
2374.000000	11.261052
2373.000000	11.250696
2372.000000	11.225415
2371.000000	11.215465
2370.000000	11.203383
2369.000000	11.177899
2368.000000	11.155664
2367.000000	11.138607
2366.000000	11.109773
2365.000000	11.087944
2364.000000	11.063374
2363.000000	11.016366
2362.000000	10.974028
2361.000000	10.951082
2360.000000	10.918491
2359.000000	10.878996
2358.000000	10.840314
2357.000000	10.800615
2356.000000	10.758988
2355.000000	10.736449
2354.000000	10.723250
2353.000000	10.710356
2352.000000	10.687308
2351.000000	10.673703
2350.000000	10.676648
2349.000000	10.672790
2348.000000	10.676952
2347.000000	10.689441
2346.000000	10.695938
2345.000000	10.712285
2344.000000	10.753810
2343.000000	10.779193
2342.000000	10.800209
2341.000000	10.822850
2340.000000	10.846710
2339.000000	10.872295
2338.000000	10.897373
2337.000000	10.899607
2336.000000	10.903668
2335.000000	10.915547
2334.000000	10.915547
2333.000000	10.916156
2332.000000	10.906308
2331.000000	10.886002
2330.000000	10.876763
2329.000000	10.852802
2328.000000	10.819398
2327.000000	10.786300
2326.000000	10.756145
2325.000000	10.696548
2324.000000	10.647204
2323.000000	10.607506
2322.000000	10.553391
2321.000000	10.483234
2320.000000	10.406579
2319.000000	10.345458
2318.000000	10.256011
2317.000000	10.169203
2316.000000	10.094680
2315.000000	9.999750
2314.000000	9.917613
2313.000000	9.824002
2312.000000	9.743896
2311.000000	9.682369
2310.000000	9.620639
2309.000000	9.554035
2308.000000	9.491696
2307.000000	9.441134
2306.000000	9.421945
2305.000000	9.410574
2304.000000	9.415650
2303.000000	9.419915
2302.000000	9.431286
2301.000000	9.463268
2300.000000	9.507839
2299.000000	9.552005
2298.000000	9.629472
2297.000000	9.697090
2296.000000	9.746434
2295.000000	9.838724
2294.000000	9.904008
2293.000000	9.950914
2292.000000	10.022899
2291.000000	10.065338
2290.000000	10.120063
2289.000000	10.141079
2288.000000	10.165954
2287.000000	10.197936
2286.000000	10.213571
2285.000000	10.212150
2284.000000	10.206058
2283.000000	10.214587
2282.000000	10.197124
2281.000000	10.166868
2280.000000	10.158745
2279.000000	10.126764
2278.000000	10.087370
2277.000000	10.073867
2276.000000	10.046352
2275.000000	10.027366
2274.000000	10.002390
2273.000000	9.981982
2272.000000	9.954062
2271.000000	9.960154
2270.000000	9.975485
2269.000000	10.002694
2268.000000	10.033864
2267.000000	10.065744
2266.000000	10.149303
2265.000000	10.240477
2264.000000	10.330940
2263.000000	10.424651
2262.000000	10.547198
2261.000000	10.688527
2260.000000	10.848030
2259.000000	10.996263
2258.000000	11.175767
2257.000000	11.362988
2256.000000	11.541680
2255.000000	11.724941
2254.000000	11.920588
2253.000000	12.117251
2252.000000	12.285587
2251.000000	12.461538
2250.000000	12.665105
2249.000000	12.798515
2248.000000	12.973856
2247.000000	13.111327
2246.000000	13.256108
2245.000000	13.395509
2244.000000	13.500693
2243.000000	13.619381
2242.000000	13.716850
2241.000000	13.839904
2240.000000	13.898486
2239.000000	13.983466
2238.000000	14.047430
2237.000000	14.116572
2236.000000	14.177997
2235.000000	14.254347
2234.000000	14.278613
2233.000000	14.305214
2232.000000	14.384001
2231.000000	14.386234
2230.000000	14.392021
2229.000000	14.431923
2228.000000	14.453345
2227.000000	14.447253
2226.000000	14.435882
2225.000000	14.440045
2224.000000	14.431516
2223.000000	14.410297
2222.000000	14.424511
2221.000000	14.378721
2220.000000	14.356384
2219.000000	14.339632
2218.000000	14.326738
2217.000000	14.270694
2216.000000	14.241859
2215.000000	14.219929
2214.000000	14.202567
2213.000000	14.147538
2212.000000	14.131293
2211.000000	14.121851
2210.000000	14.070274
2209.000000	14.060426
2208.000000	14.040323
2207.000000	14.017682
2206.000000	13.997274
2205.000000	13.974024
2204.000000	13.952195
2203.000000	13.933209
2202.000000	13.914426
2201.000000	13.895237
2200.000000	13.890668
2199.000000	13.875033
2198.000000	13.851173
2197.000000	13.849752
2196.000000	13.842239
2195.000000	13.832187
2194.000000	13.801627
2193.000000	13.791982
2192.000000	13.770356
2191.000000	13.752994
2190.000000	13.736648
2189.000000	13.720302
2188.000000	13.719388
2187.000000	13.695021
2186.000000	13.691772
2185.000000	13.686797
2184.000000	13.657759
2183.000000	13.656846
2182.000000	13.629331
2181.000000	13.630651
2180.000000	13.615219
2179.000000	13.600801
2178.000000	13.614508
2177.000000	13.593999
2176.000000	13.590039
2175.000000	13.572475
2174.000000	13.576840
2173.000000	13.565977
2172.000000	13.563845
2171.000000	13.599278
2170.000000	13.602020
2169.000000	13.607401
2168.000000	13.627199
2167.000000	13.663445
2166.000000	13.669029
2165.000000	13.685782
2164.000000	13.714718
2163.000000	13.731165
2162.000000	13.760406
2161.000000	13.801830
2160.000000	13.839497
2159.000000	13.858179
2158.000000	13.872596
2157.000000	13.903258
2156.000000	13.958693
2155.000000	14.006920
2154.000000	14.063269
2153.000000	14.092509
2152.000000	14.126623
2151.000000	14.169976
2150.000000	14.197491
2149.000000	14.242773
2148.000000	14.294045
2147.000000	14.320748
2146.000000	14.346841
2145.000000	14.390194
2144.000000	14.427151
2143.000000	14.466443
2142.000000	14.497003
2141.000000	14.526142
2140.000000	14.563505
2139.000000	14.588786
2138.000000	14.616503
2137.000000	14.633662
2136.000000	14.662801
2135.000000	14.675289
2134.000000	14.712855
2133.000000	14.719048
2132.000000	14.721789
2131.000000	14.741182
2130.000000	14.740572
2129.000000	14.743111
2128.000000	14.746360
2127.000000	14.742501
2126.000000	14.734481
2125.000000	14.736410
2124.000000	14.726257
2123.000000	14.713667
2122.000000	14.704022
2121.000000	14.675289
2120.000000	14.651531
2119.000000	14.638129
2118.000000	14.619448
2117.000000	14.572541
2116.000000	14.553149
2115.000000	14.548275
2114.000000	14.509796
2113.000000	14.476494
2112.000000	14.458828
2111.000000	14.421465
2110.000000	14.377097
2109.000000	14.342576
2108.000000	14.314757
2107.000000	14.290898
2106.000000	14.253027
2105.000000	14.210994
2104.000000	14.185815
2103.000000	14.158097
2102.000000	14.122156
2101.000000	14.076874
2100.000000	14.041237
2099.000000	14.014737
2098.000000	13.989964
2097.000000	13.966308
2096.000000	13.930569
2095.000000	13.883358
2094.000000	13.860006
2093.000000	13.845082
2092.000000	13.825182
2091.000000	13.795941
2090.000000	13.770254
2089.000000	13.741318
2088.000000	13.702128
2087.000000	13.689437
2086.000000	13.674613
2085.000000	13.628519
2084.000000	13.587501
2083.000000	13.564860
2082.000000	13.539985
2081.000000	13.512775
2080.000000	13.466782
2079.000000	13.401600
2078.000000	13.354795
2077.000000	13.312254
2076.000000	13.270018
2075.000000	13.221994
2074.000000	13.175189
2073.000000	13.119043
2072.000000	13.049597
2071.000000	12.989796
2070.000000	12.926950
2069.000000	12.869179
2068.000000	12.813947
2067.000000	12.750186
2066.000000	12.687441
2065.000000	12.628757
2064.000000	12.549869
2063.000000	12.481742
2062.000000	12.419708
2061.000000	12.375847
2060.000000	12.322239
2059.000000	12.261931
2058.000000	12.206089
2057.000000	12.156238
2056.000000	12.117860
2055.000000	12.084355
2054.000000	12.057349
2053.000000	12.028311
2052.000000	12.007904
2051.000000	12.002827
2050.000000	12.007091
2049.000000	12.020493
2048.000000	12.046993
2047.000000	12.075421
2046.000000	12.114307
2045.000000	12.154919
2044.000000	12.207409
2043.000000	12.238782
2042.000000	12.283861
2041.000000	12.349855
2040.000000	12.409453
2039.000000	12.464787
2038.000000	12.527126
2037.000000	12.571291
2036.000000	12.598501
2035.000000	12.652109
2034.000000	12.706630
2033.000000	12.722469
2032.000000	12.772015
2031.000000	12.799022
2030.000000	12.816485
2029.000000	12.836690
2028.000000	12.834659
2027.000000	12.862377
2026.000000	12.871819
2025.000000	12.877098
2024.000000	12.875474
2023.000000	12.891414
2022.000000	12.890602
2021.000000	12.882276
2020.000000	12.892226
2019.000000	12.891110
2018.000000	12.871819
2017.000000	12.859128
2016.000000	12.852325
2015.000000	12.848975
2014.000000	12.830903
2013.000000	12.802779
2012.000000	12.782981
2011.000000	12.744399
2010.000000	12.726226
2009.000000	12.691198
2008.000000	12.662059
2007.000000	12.646119
2006.000000	12.629468
2005.000000	12.589364
2004.000000	12.550173
2003.000000	12.504688
2002.000000	12.477986
2001.000000	12.428947
2000.000000	12.400112
1999.000000	12.342038
1998.000000	12.281729
1997.000000	12.263961
1996.000000	12.196241
1995.000000	12.147811
1994.000000	12.079279
1993.000000	12.029834
1992.000000	11.974399
1991.000000	11.914090
1990.000000	11.856726
1989.000000	11.783523
1988.000000	11.728494
1987.000000	11.672247
1986.000000	11.607471
1985.000000	11.540766
1984.000000	11.466853
1983.000000	11.398726
1982.000000	11.339534
1981.000000	11.282170
1980.000000	11.238106
1979.000000	11.156680
1978.000000	11.108859
1977.000000	11.028854
1976.000000	10.954737
1975.000000	10.890774
1974.000000	10.822952
1973.000000	10.767821
1972.000000	10.727210
1971.000000	10.681217
1970.000000	10.595018
1969.000000	10.550548
1968.000000	10.493184
1967.000000	10.426682
1966.000000	10.386273
1965.000000	10.348403
1964.000000	10.276824
1963.000000	10.236822
1962.000000	10.207277
1961.000000	10.148796
1960.000000	10.083410
1959.000000	10.046758
1958.000000	10.019751
1957.000000	9.949696
1956.000000	9.912942
1955.000000	9.877712
1954.000000	9.825221
1953.000000	9.811616
1952.000000	9.730798
1951.000000	9.700847
1950.000000	9.679221
1949.000000	9.648762
1948.000000	9.603886
1947.000000	9.589977
1946.000000	9.551903
1945.000000	9.528145
1944.000000	9.521444
1943.000000	9.489970
1942.000000	9.478396
1941.000000	9.473522
1940.000000	9.470883
1939.000000	9.451998
1938.000000	9.456059
1937.000000	9.456465
1936.000000	9.466618
1935.000000	9.481746
1934.000000	9.492711
1933.000000	9.516165
1932.000000	9.571092
1931.000000	9.561751
1930.000000	9.607440
1929.000000	9.662367
1928.000000	9.712421
1927.000000	9.781563
1926.000000	9.822073
1925.000000	9.906038
1924.000000	9.971525
1923.000000	10.038128
1922.000000	10.128896
1921.000000	10.222709
1920.000000	10.318045
1919.000000	10.453080
1918.000000	10.547502
1917.000000	10.655733
1916.000000	10.763151
1915.000000	10.871179
1914.000000	11.017990
1913.000000	11.141349
1912.000000	11.332021
1911.000000	11.492133
1910.000000	11.661789
1909.000000	11.805758
1908.000000	11.929218
1907.000000	12.094813
1906.000000	12.304269
1905.000000	12.556671
1904.000000	12.779529
1903.000000	13.008072
1902.000000	13.244940
1901.000000	13.473686
1900.000000	13.728526
1899.000000	14.044790
1898.000000	14.378416
1897.000000	14.657318
1896.000000	14.936017
1895.000000	15.220706
1894.000000	15.496663
1893.000000	15.812826
1892.000000	16.187267
1891.000000	16.632678
1890.000000	17.064382
1889.000000	17.465626
1888.000000	17.896416
1887.000000	18.298677
1886.000000	18.715862
1885.000000	19.180664
1884.000000	19.697348
1883.000000	20.221241
1882.000000	20.742697
1881.000000	21.249126
1880.000000	21.751190
1879.000000	22.174264
1878.000000	22.660997
1877.000000	23.136764
1876.000000	23.598115
1875.000000	24.036621
1874.000000	24.477462
1873.000000	24.906222
1872.000000	25.329397
1871.000000	25.733180
1870.000000	26.130059
1869.000000	26.466833
1868.000000	26.795890
1867.000000	27.033470
1866.000000	27.240082
1865.000000	27.406997
1864.000000	27.565180
1863.000000	27.705189
1862.000000	27.841138
1861.000000	28.011504
1860.000000	28.167961
1859.000000	28.318530
1858.000000	28.460468
1857.000000	28.572354
1856.000000	28.650734
1855.000000	28.702718
1854.000000	28.763737
1853.000000	28.818563
1852.000000	28.840595
1851.000000	28.866789
1850.000000	28.876638
1849.000000	28.878364
1848.000000	28.910346
1847.000000	28.952480
1846.000000	28.961009
1845.000000	28.910142
1844.000000	28.864251
1843.000000	28.820289
1842.000000	28.827294
1841.000000	28.855418
1840.000000	28.835823
1839.000000	28.823335
1838.000000	28.795211
1837.000000	28.774601
1836.000000	28.749929
1835.000000	28.707489
1834.000000	28.654288
1833.000000	28.573673
1832.000000	28.506258
1831.000000	28.457625
1830.000000	28.431634
1829.000000	28.386758
1828.000000	28.318225
1827.000000	28.244616
1826.000000	28.179130
1825.000000	28.124608
1824.000000	28.072117
1823.000000	28.019017
1822.000000	27.991198
1821.000000	27.994143
1820.000000	27.985716
1819.000000	27.952312
1818.000000	27.893933
1817.000000	27.849260
1816.000000	27.822151
1815.000000	27.812608
1814.000000	27.781134
1813.000000	27.766006
1812.000000	27.747832
1811.000000	27.710672
1810.000000	27.677979
1809.000000	27.639195
1808.000000	27.605183
1807.000000	27.552895
1806.000000	27.512283
1805.000000	27.459386
1804.000000	27.401717
1803.000000	27.365674
1802.000000	27.318159
1801.000000	27.271861
1800.000000	27.216528
1799.000000	27.159976
1798.000000	27.111343
1797.000000	27.069614
1796.000000	27.012250
1795.000000	26.971029
1794.000000	26.938336
1793.000000	26.875896
1792.000000	26.828481
1791.000000	26.789190
1790.000000	26.742587
1789.000000	26.698930
1788.000000	26.653140
1787.000000	26.606030
1786.000000	26.548158
1785.000000	26.493941
1784.000000	26.439420
1783.000000	26.383883
1782.000000	26.333728
1781.000000	26.264992
1780.000000	26.196054
1779.000000	26.135136
1778.000000	26.087417
1777.000000	26.023149
1776.000000	25.944260
1775.000000	25.880500
1774.000000	25.789428
1773.000000	25.705158
1772.000000	25.619163
1771.000000	25.512658
1770.000000	25.411535
1769.000000	25.317823
1768.000000	25.214973
1767.000000	25.126744
1766.000000	25.044404
1765.000000	24.959322
1764.000000	24.904090
1763.000000	24.876677
1762.000000	24.875052
1761.000000	24.885916
1760.000000	24.926325
1759.000000	24.974856
1758.000000	25.028971
1757.000000	25.098214
1756.000000	25.179946
1755.000000	25.250712
1754.000000	25.307974
1753.000000	25.355998
1752.000000	25.394376
1751.000000	25.423109
1750.000000	25.449710
1749.000000	25.460472
1748.000000	25.454685
1747.000000	25.441181
1746.000000	25.387980
1745.000000	25.331225
1744.000000	25.267464
1743.000000	25.175580
1742.000000	25.064710
1741.000000	24.937595
1740.000000	24.800936
1739.000000	24.620213
1738.000000	24.431368
1737.000000	24.277043
1736.000000	24.132668
1735.000000	23.975906
1734.000000	23.878539
1733.000000	23.790615
1732.000000	23.755689
1731.000000	23.752846
1730.000000	23.787264
1729.000000	23.849502
1728.000000	23.913973
1727.000000	24.005248
1726.000000	24.096016
1725.000000	24.168508
1724.000000	24.261509
1723.000000	24.344053
1722.000000	24.412585
1721.000000	24.495027
1720.000000	24.580617
1719.000000	24.663871
1718.000000	24.741338
1717.000000	24.859011
1716.000000	24.943382
1715.000000	25.064913
1714.000000	25.186240
1713.000000	25.302289
1712.000000	25.411332
1711.000000	25.493266
1710.000000	25.553676
1709.000000	25.630026
1708.000000	25.690030
1707.000000	25.698863
1706.000000	25.735211
1705.000000	25.749933
1704.000000	25.751354
1703.000000	25.727901
1702.000000	25.711961
1701.000000	25.645662
1700.000000	25.580175
1699.000000	25.516212
1698.000000	25.433973
1697.000000	25.333763
1696.000000	25.278937
1695.000000	25.253961
1694.000000	25.248986
1693.000000	25.279851
1692.000000	25.332748
1691.000000	25.420469
1690.000000	25.538244
1689.000000	25.657744
1688.000000	25.784047
1687.000000	25.860194
1686.000000	25.942128
1685.000000	26.006701
1684.000000	26.100210
1683.000000	26.213314
1682.000000	26.386219
1681.000000	26.624407
1680.000000	26.939250
1679.000000	27.310645
1678.000000	27.698387
1677.000000	28.104505
1676.000000	28.509608
1675.000000	28.831152
1674.000000	29.171074
1673.000000	29.444797
1672.000000	29.707556
1671.000000	29.923509
1670.000000	30.119055
1669.000000	30.300590
1668.000000	30.443950
1667.000000	30.558272
1666.000000	30.651781
1665.000000	30.764986
1664.000000	30.860526
1663.000000	30.916266
1662.000000	30.977691
1661.000000	31.060133
1660.000000	31.078104
1659.000000	31.130798
1658.000000	31.158109
1657.000000	31.189685
1656.000000	31.228063
1655.000000	31.226845
1654.000000	31.228571
1653.000000	31.217098
1652.000000	31.214458
1651.000000	31.179024
1650.000000	31.165927
1649.000000	31.134757
1648.000000	31.100745
1647.000000	31.067443
1646.000000	31.014140
1645.000000	30.981041
1644.000000	30.918296
1643.000000	30.870679
1642.000000	30.821640
1641.000000	30.774327
1640.000000	30.715034
1639.000000	30.633810
1638.000000	30.601930
1637.000000	30.535733
1636.000000	30.463139
1635.000000	30.392881
1634.000000	30.336735
1633.000000	30.253379
1632.000000	30.176623
1631.000000	30.101998
1630.000000	30.034278
1629.000000	29.947876
1628.000000	29.866450
1627.000000	29.765732
1626.000000	29.694357
1625.000000	29.611204
1624.000000	29.519828
1623.000000	29.442970
1622.000000	29.362457
1621.000000	29.276969
1620.000000	29.178993
1619.000000	29.112694
1618.000000	29.033095
1617.000000	28.955019
1616.000000	28.874709
1615.000000	28.785566
1614.000000	28.705154
1613.000000	28.631850
1612.000000	28.543519
1611.000000	28.482906
1610.000000	28.399043
1609.000000	28.316093
1608.000000	28.232940
1607.000000	28.143797
1606.000000	28.060137
1605.000000	27.987949
1604.000000	27.913427
1603.000000	27.818293
1602.000000	27.746715
1601.000000	27.661735
1600.000000	27.586603
1599.000000	27.501521
1598.000000	27.417455
1597.000000	27.334809
1596.000000	27.249119
1595.000000	27.191754
1594.000000	27.134187
1593.000000	27.053166
1592.000000	26.972552
1591.000000	26.900872
1590.000000	26.869601
1589.000000	26.791423
1588.000000	26.727358
1587.000000	26.673953
1586.000000	26.599837
1585.000000	26.553235
1584.000000	26.487850
1583.000000	26.430181
1582.000000	26.370177
1581.000000	26.313117
1580.000000	26.261946
1579.000000	26.215040
1578.000000	26.170773
1577.000000	26.125795
1576.000000	26.094118
1575.000000	26.067416
1574.000000	26.029038
1573.000000	26.004569
1572.000000	25.977054
1571.000000	25.939184
1570.000000	25.929437
1569.000000	25.912075
1568.000000	25.896034
1567.000000	25.887404
1566.000000	25.876540
1565.000000	25.862224
1564.000000	25.850650
1563.000000	25.859788
1562.000000	25.842020
1561.000000	25.826689
1560.000000	25.801916
1559.000000	25.777346
1558.000000	25.771152
1557.000000	25.750948
1556.000000	25.717545
1555.000000	25.694295
1554.000000	25.679370
1553.000000	25.644647
1552.000000	25.603629
1551.000000	25.552559
1550.000000	25.509409
1549.000000	25.488189
1548.000000	25.452553
1547.000000	25.406864
1546.000000	25.362597
1545.000000	25.322290
1544.000000	25.281780
1543.000000	25.247260
1542.000000	25.205430
1541.000000	25.171519
1540.000000	25.137405
1539.000000	25.120043
1538.000000	25.092732
1537.000000	25.051409
1536.000000	25.024199
1535.000000	24.997903
1534.000000	24.962672
1533.000000	24.932010
1532.000000	24.902059
1531.000000	24.871702
1530.000000	24.826724
1529.000000	24.779310
1528.000000	24.739307
1527.000000	24.692502
1526.000000	24.648235
1525.000000	24.604070
1524.000000	24.567316
1523.000000	24.507109
1522.000000	24.446090
1521.000000	24.400909
1520.000000	24.351363
1519.000000	24.295623
1518.000000	24.248412
1517.000000	24.207292
1516.000000	24.156629
1515.000000	24.100179
1514.000000	24.032255
1513.000000	23.968292
1512.000000	23.900470
1511.000000	23.841278
1510.000000	23.784828
1509.000000	23.704213
1508.000000	23.639843
1507.000000	23.587251
1506.000000	23.515673
1505.000000	23.432215
1504.000000	23.376273
1503.000000	23.317792
1502.000000	23.241441
1501.000000	23.176767
1500.000000	23.112905
1499.000000	23.064171
1498.000000	23.003253
1497.000000	22.930659
1496.000000	22.881722
1495.000000	22.831769
1494.000000	22.772172
1493.000000	22.719376
1492.000000	22.671759
1491.000000	22.619370
1490.000000	22.566067
1489.000000	22.528501
1488.000000	22.493270
1487.000000	22.438951
1486.000000	22.377425
1485.000000	22.331432
1484.000000	22.283611
1483.000000	22.225029
1482.000000	22.191321
1481.000000	22.157816
1480.000000	22.121367
1479.000000	22.078826
1478.000000	22.032427
1477.000000	21.998821
1476.000000	21.998110
1475.000000	21.983693
1474.000000	21.944909
1473.000000	21.916785
1472.000000	21.917191
1471.000000	21.920237
1470.000000	21.898205
1469.000000	21.881351
1468.000000	21.869777
1467.000000	21.856578
1466.000000	21.847034
1465.000000	21.847542
1464.000000	21.836881
1463.000000	21.845816
1462.000000	21.853633
1461.000000	21.842770
1460.000000	21.856375
1459.000000	21.887037
1458.000000	21.898510
1457.000000	21.932217
1456.000000	21.967347
1455.000000	22.004303
1454.000000	22.036184
1453.000000	22.077303
1452.000000	22.119539
1451.000000	22.163603
1450.000000	22.209190
1449.000000	22.260056
1448.000000	22.293561
1447.000000	22.345950
1446.000000	22.429103
1445.000000	22.504133
1444.000000	22.562310
1443.000000	22.622009
1442.000000	22.683333
1441.000000	22.760597
1440.000000	22.834917
1439.000000	22.922232
1438.000000	23.011274
1437.000000	23.101432
1436.000000	23.192301
1435.000000	23.289972
1434.000000	23.399421
1433.000000	23.519835
1432.000000	23.637001
1431.000000	23.748379
1430.000000	23.866153
1429.000000	24.004233
1428.000000	24.139572
1427.000000	24.299786
1426.000000	24.460202
1425.000000	24.624985
1424.000000	24.805606
1423.000000	25.014554
1422.000000	25.199541
1421.000000	25.395899
1420.000000	25.629925
1419.000000	25.884459
1418.000000	26.129146
1417.000000	26.333525
1416.000000	26.555367
1415.000000	26.826755
1414.000000	27.160585
1413.000000	27.454310
1412.000000	27.729760
1411.000000	28.021251
1410.000000	28.351019
1409.000000	28.732263
1408.000000	29.110359
1407.000000	29.520843
1406.000000	29.882288
1405.000000	30.289016
1404.000000	30.728030
1403.000000	31.168262
1402.000000	31.541180
1401.000000	31.950344
1400.000000	32.447535
1399.000000	32.891930
1398.000000	33.245557
1397.000000	33.552177
1396.000000	33.954031
1395.000000	34.380861
1394.000000	34.810230
1393.000000	35.115935
1392.000000	35.462760
1391.000000	35.864919
1390.000000	36.286977
1389.000000	36.654413
1388.000000	37.140740
1387.000000	37.643717
1386.000000	38.138268
1385.000000	38.645408
1384.000000	39.157320
1383.000000	39.722637
1382.000000	40.304909
1381.000000	40.803724
1380.000000	41.236748
1379.000000	41.507629
1378.000000	41.798917
1377.000000	42.000555
1376.000000	42.234783
1375.000000	42.472058
1374.000000	42.706185
1373.000000	42.979097
1372.000000	43.272720
1371.000000	43.609189
1370.000000	43.944338
1369.000000	44.227708
1368.000000	44.551892
1367.000000	44.837190
1366.000000	45.062687
1365.000000	45.250009
1364.000000	45.490532
1363.000000	45.645974
1362.000000	45.846901
1361.000000	46.009856
1360.000000	46.177888
1359.000000	46.244593
1358.000000	46.341249
1357.000000	46.447449
1356.000000	46.600555
1355.000000	46.843414
1354.000000	47.144449
1353.000000	47.448124
1352.000000	47.815458
1351.000000	48.206043
1350.000000	48.614293
1349.000000	49.004065
1348.000000	49.363277
1347.000000	49.726550
1346.000000	50.047586
1345.000000	50.341921
1344.000000	50.682552
1343.000000	50.974044
1342.000000	51.273962
1341.000000	51.539157
1340.000000	51.829938
1339.000000	52.114221
1338.000000	52.380127
1337.000000	52.652937
1336.000000	52.918031
1335.000000	53.188404
1334.000000	53.441314
1333.000000	53.686813
1332.000000	53.927235
1331.000000	54.153950
1330.000000	54.388077
1329.000000	54.604539
1328.000000	54.817852
1327.000000	55.025988
1326.000000	55.219199
1325.000000	55.413120
1324.000000	55.599325
1323.000000	55.773449
1322.000000	55.933561
1321.000000	56.101694
1320.000000	56.260181
1319.000000	56.412171
1318.000000	56.564059
1317.000000	56.692901
1316.000000	56.817782
1315.000000	56.946928
1314.000000	57.110593
1313.000000	57.208975
1312.000000	57.329085
1311.000000	57.440057
1310.000000	57.530926
1309.000000	57.624637
1308.000000	57.716522
1307.000000	57.830539
1306.000000	57.883132
1305.000000	57.943643
1304.000000	58.025984
1303.000000	58.082536
1302.000000	58.134621
1301.000000	58.185182
1300.000000	58.233409
1299.000000	58.268843
1298.000000	58.276254
1297.000000	58.318288
1296.000000	58.353924
1295.000000	58.386922
1294.000000	58.394333
1293.000000	58.403065
1292.000000	58.418294
1291.000000	58.426823
1290.000000	58.430782
1289.000000	58.427330
1288.000000	58.415451
1287.000000	58.406111
1286.000000	58.396059
1285.000000	58.370068
1284.000000	58.327121
1283.000000	58.290164
1282.000000	58.272498
1281.000000	58.231175
1280.000000	58.178583
1279.000000	58.145890
1278.000000	58.124975
1277.000000	58.093704
1276.000000	58.064159
1275.000000	58.028624
1274.000000	58.003647
1273.000000	57.983342
1272.000000	57.958670
1271.000000	57.961310
1270.000000	57.942222
1269.000000	57.918769
1268.000000	57.912778
1267.000000	57.886990
1266.000000	57.870238
1265.000000	57.862724
1264.000000	57.841708
1263.000000	57.819574
1262.000000	57.799167
1261.000000	57.765764
1260.000000	57.754392
1259.000000	57.727893
1258.000000	57.701394
1257.000000	57.683119
1256.000000	57.657736
1255.000000	57.620678
1254.000000	57.586361
1253.000000	57.536104
1252.000000	57.492751
1251.000000	57.455286
1250.000000	57.379240
1249.000000	57.316394
1248.000000	57.269284
1247.000000	57.177806
1246.000000	57.097496
1245.000000	57.018506
1244.000000	56.913829
1243.000000	56.818391
1242.000000	56.712090
1241.000000	56.615840
1240.000000	56.508624
1239.000000	56.391256
1238.000000	56.259471
1237.000000	56.134589
1236.000000	56.010114
1235.000000	55.880258
1234.000000	55.750198
1233.000000	55.594147
1232.000000	55.449772
1231.000000	55.305803
1230.000000	55.145488
1229.000000	54.988930
1228.000000	54.839072
1227.000000	54.677132
1226.000000	54.505344
1225.000000	54.327566
1224.000000	54.152224
1223.000000	53.978304
1222.000000	53.801338
1221.000000	53.633002
1220.000000	53.458777
1219.000000	53.283436
1218.000000	53.110937
1217.000000	52.957221
1216.000000	52.810105
1215.000000	52.667050
1214.000000	52.512217
1213.000000	52.374340
1212.000000	52.253418
1211.000000	52.120719
1210.000000	51.986598
1209.000000	51.878469
1208.000000	51.766584
1207.000000	51.653175
1206.000000	51.554082
1205.000000	51.470320
1204.000000	51.408184
1203.000000	51.346454
1202.000000	51.289090
1201.000000	51.237919
1200.000000	51.188474
1199.000000	51.136897
1198.000000	51.051105
1197.000000	50.948661
1196.000000	50.837588
1195.000000	50.680116
1194.000000	50.492083
1193.000000	50.257346
1192.000000	49.955702
1191.000000	49.634056
1190.000000	49.291292
1189.000000	48.934619
1188.000000	48.642315
1187.000000	48.412858
1186.000000	48.275997
1185.000000	48.226755
1184.000000	48.275083
1183.000000	48.435804
1182.000000	48.715315
1181.000000	49.052393
1180.000000	49.437190
1179.000000	49.857624
1178.000000	50.273185
1177.000000	50.651180
1176.000000	50.999629
1175.000000	51.312645
1174.000000	51.601395
1173.000000	51.882835
1172.000000	52.156660
1171.000000	52.442161
1170.000000	52.757715
1169.000000	53.045146
1168.000000	53.359989
1167.000000	53.680416
1166.000000	54.009372
1165.000000	54.336399
1164.000000	54.666370
1163.000000	55.015835
1162.000000	55.390885
1161.000000	55.763093
1160.000000	56.108496
1159.000000	56.466490
1158.000000	56.785902
1157.000000	57.144200
1156.000000	57.463916
1155.000000	57.761296
1154.000000	58.030045
1153.000000	58.254222
1152.000000	58.432102
1151.000000	58.581858
1150.000000	58.722477
1149.000000	58.835784
1148.000000	58.958127
1147.000000	59.067881
1146.000000	59.226774
1145.000000	59.426381
1144.000000	59.687008
1143.000000	59.952914
1142.000000	60.292124
1141.000000	60.636513
1140.000000	61.017756
1139.000000	61.399710
1138.000000	61.792528
1137.000000	62.188900
1136.000000	62.634209
1135.000000	63.072309
1134.000000	63.515079
1133.000000	63.935209
1132.000000	64.288532
1131.000000	64.645307
1130.000000	64.978527
1129.000000	65.264739
1128.000000	65.507699
1127.000000	65.722535
1126.000000	65.873307
1125.000000	66.015042
1124.000000	66.138807
1123.000000	66.238204
1122.000000	66.327043
1121.000000	66.400550
1120.000000	66.454259
1119.000000	66.487053
1118.000000	66.512537
1117.000000	66.536498
1116.000000	66.560053
1115.000000	66.532945
1114.000000	66.552134
1113.000000	66.537716
1112.000000	66.538935
1111.000000	66.536498
1110.000000	66.531726
1109.000000	66.534772
1108.000000	66.520456
1107.000000	66.514974
1106.000000	66.513451
1105.000000	66.493754
1104.000000	66.478322
1103.000000	66.473042
1102.000000	66.470808
1101.000000	66.451112
1100.000000	66.447558
1099.000000	66.456391
1098.000000	66.435984
1097.000000	66.418419
1096.000000	66.414155
1095.000000	66.390296
1094.000000	66.363695
1093.000000	66.335977
1092.000000	66.317093
1091.000000	66.307143
1090.000000	66.265719
1089.000000	66.236884
1088.000000	66.224396
1087.000000	66.197186
1086.000000	66.161651
1085.000000	66.121851
1084.000000	66.087128
1083.000000	66.049055
1082.000000	66.027530
1081.000000	65.973110
1080.000000	65.934225
1079.000000	65.932702
1078.000000	65.887623
1077.000000	65.866809
1076.000000	65.812897
1075.000000	65.774925
1074.000000	65.769950
1073.000000	65.729033
1072.000000	65.702230
1071.000000	65.639078
1070.000000	65.629128
1069.000000	65.591461
1068.000000	65.538564
1067.000000	65.504450
1066.000000	65.457746
1065.000000	65.438659
1064.000000	65.371548
1063.000000	65.353780
1062.000000	65.311341
1061.000000	65.258241
1060.000000	65.212146
1059.000000	65.185749
1058.000000	65.130212
1057.000000	65.087265
1056.000000	65.033556
1055.000000	64.987360
1054.000000	64.918726
1053.000000	64.872022
1052.000000	64.821359
1051.000000	64.758817
1050.000000	64.693432
1049.000000	64.649469
1048.000000	64.602969
1047.000000	64.564692
1046.000000	64.496870
1045.000000	64.447832
1044.000000	64.394529
1043.000000	64.329347
1042.000000	64.278074
1041.000000	64.233096
1040.000000	64.176037
1039.000000	64.132785
1038.000000	64.088620
1037.000000	64.005569
1036.000000	63.968003
1035.000000	63.910029
1034.000000	63.838248
1033.000000	63.771035
1032.000000	63.693264
1031.000000	63.631737
1030.000000	63.556808
1029.000000	63.490509
1028.000000	63.414667
1027.000000	63.363191
1026.000000	63.281054
1025.000000	63.185819
1024.000000	63.101042
1023.000000	63.027433
1022.000000	62.955042
1021.000000	62.878996
1020.000000	62.803763
1019.000000	62.731779
1018.000000	62.667003
1017.000000	62.592886
1016.000000	62.524252
1015.000000	62.478767
1014.000000	62.428814
1013.000000	62.388406
1012.000000	62.350027
1011.000000	62.319670
1010.000000	62.301801
1009.000000	62.296115
1008.000000	62.286977
1007.000000	62.292257
1006.000000	62.285861
1005.000000	62.293983
1004.000000	62.295811
1003.000000	62.295709
1002.000000	62.292155
1001.000000	62.297232
1000.000000	62.323122
999.000000	62.329823
998.000000	62.334595
997.000000	62.346677
996.000000	62.363734
995.000000	62.394294
994.000000	62.390842
993.000000	62.395310
992.000000	62.414499
991.000000	62.429017
990.000000	62.435718
989.000000	62.449831
988.000000	62.461101
987.000000	62.476330
986.000000	62.509936
985.000000	62.545979
984.000000	62.591465
983.000000	62.613395
982.000000	62.646494
981.000000	62.692385
980.000000	62.739596
979.000000	62.783559
978.000000	62.817470
977.000000	62.840618
976.000000	62.873920
975.000000	62.907932
974.000000	62.916156
973.000000	62.912501
972.000000	62.928441
971.000000	62.962758
970.000000	62.960017
969.000000	62.963164
968.000000	62.975145
967.000000	62.998192
966.000000	63.024894
965.000000	63.067232
964.000000	63.119825
963.000000	63.158101
962.000000	63.191301
961.000000	63.237294
960.000000	63.290090
959.000000	63.347657
958.000000	63.409082
957.000000	63.451623
956.000000	63.477513
955.000000	63.530512
954.000000	63.580870
953.000000	63.617218
952.000000	63.678136
951.000000	63.737124
950.000000	63.790021
949.000000	63.856625
948.000000	63.931351
947.000000	63.985872
946.000000	64.050343
945.000000	64.140095
944.000000	64.203145
943.000000	64.262946
942.000000	64.340312
941.000000	64.429252
940.000000	64.512100
939.000000	64.576876
938.000000	64.653226
937.000000	64.725921
936.000000	64.799632
935.000000	64.874560
934.000000	64.956495
933.000000	65.047161
932.000000	65.153665
931.000000	65.240473
930.000000	65.312864
929.000000	65.400687
928.000000	65.503435
927.000000	65.580902
926.000000	65.653394
925.000000	65.733805
924.000000	65.802744
923.000000	65.881531
922.000000	65.948540
921.000000	65.993112
920.000000	66.045196
919.000000	66.113627
918.000000	66.168149
917.000000	66.223990
916.000000	66.269983
915.000000	66.327550
914.000000	66.396387
913.000000	66.467153
912.000000	66.535178
911.000000	66.592949
910.000000	66.658841
909.000000	66.722297
908.000000	66.792048
907.000000	66.858855
906.000000	66.936728
905.000000	67.030541
904.000000	67.129532
903.000000	67.215630
902.000000	67.325383
901.000000	67.447523
900.000000	67.592812
899.000000	67.720942
898.000000	67.874556
897.000000	68.033349
896.000000	68.183917
895.000000	68.345248
894.000000	68.511756
893.000000	68.667198
892.000000	68.834722
891.000000	68.995240
890.000000	69.154641
889.000000	69.313028
888.000000	69.472429
887.000000	69.623911
886.000000	69.755494
885.000000	69.910529
884.000000	70.050843
883.000000	70.202224
882.000000	70.344568
881.000000	70.483867
880.000000	70.608545
879.000000	70.724187
878.000000	70.837291
877.000000	70.909073
876.000000	70.957502
875.000000	71.002277
874.000000	71.048473
873.000000	71.034665
872.000000	71.017709
871.000000	71.082079
870.000000	71.191934
869.000000	71.315293
868.000000	71.461292
867.000000	71.590133
866.000000	71.713187
865.000000	71.821113
864.000000	71.944065
863.000000	72.047321
862.000000	72.159003
861.000000	72.262665
860.000000	72.370083
859.000000	72.490294
858.000000	72.572533
857.000000	72.345700
856.000000	72.518300
855.000000	72.853600
854.000000	72.788800
853.000000	72.583200
852.000000	72.019000
851.000000	72.663800
850.000000	72.771200
849.000000	72.837700
848.000000	73.128400
847.000000	72.934900
846.000000	72.978600
845.000000	72.595100
844.000000	72.841000
843.000000	72.823200
842.000000	72.860400
841.000000	72.951500
840.000000	72.979000
839.000000	73.398900
838.000000	73.066500
837.000000	72.977500
836.000000	72.953600
835.000000	72.922800
834.000000	72.836500
833.000000	72.580800
832.000000	72.482300
831.000000	72.408000
830.000000	72.508000
829.000000	72.509900
828.000000	72.534400
827.000000	72.429600
826.000000	72.490600
825.000000	72.409000
824.000000	72.413800
823.000000	72.413600
822.000000	72.490900
821.000000	72.135500
820.000000	71.792700
819.000000	71.797100
818.000000	71.896900
817.000000	71.486700
816.000000	71.310400
815.000000	71.298200
814.000000	71.126100
813.000000	71.024000
812.000000	70.846100
811.000000	70.617200
810.000000	70.621700
809.000000	70.561300
808.000000	70.391600
807.000000	70.281800
806.000000	70.261600
805.000000	70.022900
804.000000	69.814700
803.000000	69.915700
802.000000	69.901400
801.000000	69.619800
800.000000	69.185700
799.000000	69.241500
798.000000	69.008100
797.000000	68.749800
796.000000	68.777800
795.000000	68.330000
794.000000	68.279800
793.000000	67.933200
792.000000	67.901000
791.000000	67.558300
790.000000	67.572900
789.000000	67.318600
788.000000	67.472600
787.000000	67.504700
786.000000	67.206200
785.000000	67.189800
784.000000	66.880500
783.000000	66.868200
782.000000	66.625900
781.000000	66.270400
780.000000	66.236700
779.000000	65.857700
778.000000	65.489300
777.000000	65.482300
776.000000	65.206900
775.000000	64.908600
774.000000	64.839400
773.000000	64.737700
772.000000	64.689000
771.000000	64.529700
770.000000	64.489400
769.000000	64.403700
768.000000	64.325800
767.000000	64.284100
766.000000	64.047500
765.000000	63.915400
764.000000	63.886100
763.000000	63.592500
762.000000	63.295300
761.000000	63.134800
760.000000	62.823600
759.000000	62.616900
758.000000	62.406600
757.000000	62.297900
756.000000	62.268300
755.000000	62.217000
754.000000	62.182200
753.000000	62.152400
752.000000	62.121600
751.000000	62.125000
750.000000	62.190000
749.000000	62.068700
748.000000	62.005800
747.000000	61.990400
746.000000	61.871500
745.000000	61.673600
744.000000	61.455200
743.000000	61.242100
742.000000	61.043500
741.000000	60.771800
740.000000	60.621500
739.000000	60.503200
738.000000	60.367100
737.000000	60.324000
736.000000	60.329600
735.000000	60.345600
734.000000	60.319100
733.000000	60.361200
732.000000	60.358700
731.000000	60.303700
730.000000	60.229100
729.000000	60.181800
728.000000	60.022400
727.000000	59.851600
726.000000	59.590000
725.000000	59.337700
724.000000	59.078600
723.000000	58.846700
722.000000	58.557900
721.000000	58.286900
720.000000	58.151800
719.000000	57.939500
718.000000	57.771700
717.000000	57.661600
716.000000	57.532400
715.000000	57.464700
714.000000	57.385800
713.000000	57.323600
712.000000	57.244600
711.000000	57.146700
710.000000	57.043300
709.000000	56.832800
708.000000	56.692200
707.000000	56.545200
706.000000	56.380800
705.000000	56.164000
704.000000	55.904100
703.000000	55.742700
702.000000	55.571500
701.000000	55.463200
700.000000	55.289800
699.000000	55.140400
698.000000	55.123900
697.000000	55.096100
696.000000	55.113800
695.000000	55.126600
694.000000	55.207500
693.000000	55.236500
692.000000	55.355400
691.000000	55.444700
690.000000	55.500000
689.000000	55.572700
688.000000	55.637800
687.000000	55.687300
686.000000	55.646000
685.000000	55.564500
684.000000	55.588000
683.000000	55.493200
682.000000	55.400200
681.000000	55.384300
680.000000	55.377800
679.000000	55.388100
678.000000	55.442800
677.000000	55.480800
676.000000	55.551200
675.000000	55.692000
674.000000	55.822300
673.000000	55.932800
672.000000	56.018900
671.000000	56.043700
670.000000	56.041600
669.000000	56.001400
668.000000	55.887600
667.000000	55.690300
666.000000	55.454800
665.000000	55.171500
664.000000	54.841500
663.000000	54.476800
662.000000	54.122200
661.000000	53.758100
660.000000	53.427900
659.000000	53.175000
658.000000	52.921100
657.000000	52.714900
656.000000	52.562500
655.000000	52.427300
654.000000	52.349200
653.000000	52.251600
652.000000	52.108500
651.000000	51.882200
650.000000	51.642600
649.000000	51.395400
648.000000	51.061400
647.000000	50.680400
646.000000	50.300700
645.000000	49.925000
644.000000	49.581800
643.000000	49.340700
642.000000	49.200700
641.000000	49.178600
640.000000	49.309500
639.000000	49.608300
638.000000	50.040100
637.000000	50.582400
636.000000	51.258900
635.000000	51.969700
634.000000	52.725200
633.000000	53.502600
632.000000	54.256300
631.000000	55.002800
630.000000	55.688000
629.000000	56.305800
628.000000	56.957300
627.000000	57.594800
626.000000	58.200500
625.000000	58.807500
624.000000	59.353700
623.000000	59.934300
622.000000	60.559800
621.000000	61.117100
620.000000	61.693000
619.000000	62.270900
618.000000	62.868000
617.000000	63.523000
616.000000	64.157100
615.000000	64.714400
614.000000	65.205100
613.000000	65.607100
612.000000	65.933800
611.000000	66.156200
610.000000	66.306600
609.000000	66.399200
608.000000	66.414200
607.000000	66.495100
606.000000	66.591000
605.000000	66.660500
604.000000	66.828600
603.000000	67.100700
602.000000	67.428000
601.000000	67.828600
600.000000	68.267000
599.000000	68.781700
598.000000	69.346900
597.000000	69.970700
596.000000	70.581900
595.000000	71.198000
594.000000	71.696600
593.000000	72.140100
592.000000	72.450500
591.000000	72.639200
590.000000	72.702400
589.000000	72.653700
588.000000	72.472500
587.000000	72.224900
586.000000	71.881400
585.000000	71.526400
584.000000	71.194900
583.000000	70.907900
582.000000	70.679300
581.000000	70.528500
580.000000	70.426000
579.000000	70.408200
578.000000	70.476100
577.000000	70.589300
576.000000	70.798900
575.000000	70.988300
574.000000	71.198400
573.000000	71.348700
572.000000	71.500400
571.000000	71.566000
570.000000	71.516800
569.000000	71.341100
568.000000	71.058300
567.000000	70.699000
566.000000	70.284000
565.000000	69.806900
564.000000	69.272500
563.000000	68.762700
562.000000	68.282000
561.000000	67.843700
560.000000	67.430300
559.000000	67.027300
558.000000	66.721200
557.000000	66.413600
556.000000	66.070100
555.000000	65.668000
554.000000	65.171300
553.000000	64.600000
552.000000	63.906300
551.000000	63.167900
550.000000	62.347000
549.000000	61.494800
548.000000	60.558900
547.000000	59.601600
546.000000	58.635700
545.000000	57.631900
544.000000	56.616300
543.000000	55.553300
542.000000	54.473700
541.000000	53.401200
540.000000	52.312700
539.000000	51.248700
538.000000	50.258700
537.000000	49.291400
536.000000	48.343900
535.000000	47.414100
534.000000	46.535700
533.000000	45.670400
532.000000	44.821500
531.000000	44.020000
530.000000	43.265500
529.000000	42.525700
528.000000	41.847400
527.000000	41.167000
526.000000	40.527400
525.000000	39.825000
524.000000	39.147300
523.000000	38.441300
522.000000	37.758900
521.000000	37.073700
520.000000	36.398700
519.000000	35.703500
518.000000	35.023700
517.000000	34.269900
516.000000	33.519500
515.000000	32.738500
514.000000	32.024500
513.000000	31.299000
512.000000	30.625400
511.000000	29.973300
510.000000	29.344800
509.000000	28.702200
508.000000	28.168500
507.000000	27.656300
506.000000	27.227900
505.000000	26.860900
504.000000	26.512100
503.000000	26.262700
502.000000	25.982400
501.000000	25.771800
500.000000	25.635400
499.000000	25.511200
498.000000	25.405000
497.000000	25.332100
496.000000	25.253800
495.000000	25.177700
494.000000	25.112100
493.000000	25.069900
492.000000	24.992400
491.000000	24.942100
490.000000	24.878900
489.000000	24.794500
488.000000	24.689900
487.000000	24.589000
486.000000	24.479800
485.000000	24.386200
484.000000	24.265700
483.000000	24.150000
482.000000	23.965800
481.000000	23.786800
480.000000	23.589200
479.000000	23.408000
478.000000	23.241900
477.000000	23.048300
476.000000	22.829900
475.000000	22.591700
474.000000	22.343300
473.000000	22.168800
472.000000	21.958000
471.000000	21.722000
470.000000	21.496800
469.000000	21.277100
468.000000	21.049000
467.000000	20.837000
466.000000	20.609600
465.000000	20.373900
464.000000	20.136300
463.000000	19.883200
462.000000	19.627800
461.000000	19.379100
460.000000	19.156900
459.000000	18.866600
458.000000	18.585500
457.000000	18.298300
456.000000	17.996200
455.000000	17.759600
454.000000	17.433100
453.000000	17.142700
452.000000	16.840600
451.000000	16.506000
450.000000	16.173400
449.000000	15.850500
448.000000	15.506900
447.000000	15.187400
446.000000	14.827900
445.000000	14.489400
444.000000	14.139300
443.000000	13.761000
442.000000	13.396600
441.000000	13.038600
440.000000	12.675500
439.000000	12.304800
438.000000	11.949300
437.000000	11.594300
436.000000	11.256300
435.000000	10.945900
434.000000	10.617100
433.000000	10.296900
432.000000	10.000400
431.000000	9.715000
430.000000	9.454100
429.000000	9.186600
428.000000	8.940100
427.000000	8.696600
426.000000	8.494700
425.000000	8.302900
424.000000	8.085300
423.000000	7.888100
422.000000	7.716900
421.000000	7.550200
420.000000	7.400300
419.000000	7.261400
418.000000	7.132600
417.000000	7.020600
416.000000	6.915300
415.000000	6.827600
414.000000	6.757500
413.000000	6.675200
412.000000	6.605700
411.000000	6.539400
410.000000	6.480700
409.000000	6.418000
408.000000	6.358900
407.000000	6.318600
406.000000	6.278600
405.000000	6.242400
404.000000	6.238400
403.000000	6.214300
402.000000	6.168500
401.000000	6.149900
400.000000	6.136400
399.000000	6.113200
398.000000	6.080500
397.000000	6.071800
396.000000	6.045900
395.000000	6.043200
394.000000	6.028400
393.000000	6.009400
392.000000	6.004500
391.000000	5.987900
390.000000	5.964500
389.000000	5.966800
388.000000	5.938400
387.000000	5.938500
386.000000	5.938300
385.000000	5.911600
384.000000	5.907600
383.000000	5.901000
382.000000	5.890200
381.000000	5.873200
380.000000	5.870000
379.000000	5.861800
378.000000	5.840000
377.000000	5.853800
376.000000	5.744500
375.000000	5.529400
374.000000	5.513900
373.000000	5.574700
372.000000	5.496100
371.000000	5.607900
370.000000	5.644500
369.000000	5.525000
368.000000	5.617000
367.000000	5.862100
366.000000	5.800200
365.000000	5.766900
364.000000	5.776900
363.000000	5.789000
362.000000	5.926400
361.000000	5.975400
360.000000	5.871500
359.000000	5.813700
358.000000	5.772500
357.000000	5.816400
356.000000	5.756500
355.000000	5.743400
354.000000	5.816400
353.000000	5.670000
352.000000	5.648000
351.000000	5.904000
350.000000	5.886600
349.000000	5.702300
348.000000	5.587000
347.000000	5.637900
346.000000	5.712400
345.000000	5.884800
344.000000	5.975600
343.000000	5.840900
342.000000	5.857200
341.000000	5.964300
340.000000	5.936200
339.000000	5.733100
338.000000	5.777800
337.000000	5.780600
336.000000	5.703300
335.000000	5.842900
334.000000	6.008600
333.000000	5.945100
332.000000	5.790300
331.000000	5.885500
330.000000	6.201600
329.000000	6.156900
328.000000	5.936200
327.000000	5.970900
326.000000	6.162600
325.000000	5.902100
324.000000	6.135500
323.000000	6.559700
322.000000	6.662800
321.000000	6.034800
320.000000	5.824300
319.000000	6.294100
318.000000	6.157500
317.000000	6.840200
316.000000	6.511900
315.000000	5.695500
314.000000	5.701300
313.000000	5.695300
312.000000	5.692200
311.000000	5.699600
310.000000	5.705500
309.000000	5.688000
308.000000	5.667500
307.000000	5.673800
306.000000	5.686400
305.000000	5.692800
304.000000	5.683500
303.000000	5.713000
302.000000	5.736700
301.000000	5.732100
300.000000	5.729500
299.000000	5.705500
298.000000	5.695300
297.000000	5.729500
296.000000	5.722400
295.000000	5.768700
294.000000	5.753600
293.000000	5.762500
292.000000	5.763400
291.000000	5.785000
290.000000	5.755000
289.000000	5.779300
288.000000	5.801500
287.000000	5.799100
286.000000	5.831000
285.000000	5.841600
284.000000	5.818200
283.000000	5.848500
282.000000	5.843900
281.000000	5.854800
280.000000	5.864700
279.000000	5.864000
278.000000	5.871300
277.000000	5.948000
276.000000	5.961600
275.000000	5.908900
274.000000	5.922300
273.000000	5.940700
272.000000	6.010600
271.000000	6.045600
270.000000	6.066100
269.000000	6.067500
268.000000	6.058000
267.000000	6.095400
266.000000	6.151100
265.000000	6.192500
264.000000	6.221900
263.000000	6.195400
262.000000	6.233000
261.000000	6.261000
260.000000	6.315800
259.000000	6.317500
258.000000	6.350700
257.000000	6.366700
256.000000	6.377900
255.000000	6.381400
254.000000	6.399700
253.000000	6.410200
252.000000	6.432200
251.000000	6.484700
250.000000	6.477700
