PE UV       SUBTECH     SPECTRUM    ASCII       PEDS        4.00        
   -1
CICIMAUCR0205-3.Sample.ASC
24/05/31
16:47:51.00
24/05/31
16:47:51.00
Vinicio Soto Monge
C. cupreomarginata. Sex F. Dorsal
250,000000
1
Lambda 1050
1050L1511233
PerkinElmer UV WinLab 6.3.2.0749 / 2.02.05 Lambda 900 UV/VIS/NIR, Aug  7 2015 09:38:08

0
0
3350/servo 860,8/2
0
0
UV/VIS
1
1
1
DoubleDePol,CommonBeamDepol,RBeamAtt,SBeamAtt,60mm sphere, WB InGaAs Detector
0
0
0
0
Program
Program
3350/servo 860,8/2
3350/0,2 860,8/0,2
3350/0,2 860,8/0,2
0
15.00
 
 
 
0
 
860,8
319,2
860,8
Front
100
on
S:100 R:100
0
0
0
0
 
0
 
 
 
0
 
 
0
0
0
0
0
 
 
 
 
0
0


0
0
#HDR
-1
-1
#GR
nm
%R
1.0
0.0
2500,000000
-1,000000
2251
8
69,495500
5,503700
#DATA
2500.000000	9.547887
2499.000000	9.608666
2498.000000	9.398230
2497.000000	9.403329
2496.000000	9.476701
2495.000000	9.378664
2494.000000	9.474619
2493.000000	9.335682
2492.000000	9.339636
2491.000000	9.283021
2490.000000	9.346609
2489.000000	9.332976
2488.000000	9.303627
2487.000000	9.370962
2486.000000	9.371795
2485.000000	9.383035
2484.000000	9.268034
2483.000000	9.327772
2482.000000	9.320799
2481.000000	9.303211
2480.000000	9.303627
2479.000000	9.357953
2478.000000	9.336098
2477.000000	9.345985
2476.000000	9.340781
2475.000000	9.401768
2474.000000	9.353790
2473.000000	9.368465
2472.000000	9.397397
2471.000000	9.462235
2470.000000	9.399374
2469.000000	9.409053
2468.000000	9.385012
2467.000000	9.447769
2466.000000	9.500950
2465.000000	9.520724
2464.000000	9.523742
2463.000000	9.554027
2462.000000	9.559335
2461.000000	9.618969
2460.000000	9.677250
2459.000000	9.735531
2458.000000	9.778305
2457.000000	9.835233
2456.000000	9.898093
2455.000000	9.982289
2454.000000	10.031099
2453.000000	10.090421
2452.000000	10.211874
2451.000000	10.258499
2450.000000	10.351541
2449.000000	10.406179
2448.000000	10.492560
2447.000000	10.570719
2446.000000	10.655955
2445.000000	10.747539
2444.000000	10.832463
2443.000000	10.892097
2442.000000	10.949129
2441.000000	11.047790
2440.000000	11.134171
2439.000000	11.213059
2438.000000	11.294756
2437.000000	11.380513
2436.000000	11.464708
2435.000000	11.530170
2434.000000	11.609682
2433.000000	11.646524
2432.000000	11.718855
2431.000000	11.792435
2430.000000	11.845720
2429.000000	11.926585
2428.000000	11.993816
2427.000000	12.036590
2426.000000	12.079468
2425.000000	12.152112
2424.000000	12.194678
2423.000000	12.246194
2422.000000	12.288552
2421.000000	12.343398
2420.000000	12.383466
2419.000000	12.409277
2418.000000	12.466621
2417.000000	12.513870
2416.000000	12.542698
2415.000000	12.594527
2414.000000	12.634491
2413.000000	12.672374
2412.000000	12.699016
2411.000000	12.739501
2410.000000	12.772908
2409.000000	12.815995
2408.000000	12.842638
2407.000000	12.871674
2406.000000	12.895923
2405.000000	12.919964
2404.000000	12.954204
2403.000000	12.981888
2402.000000	13.012069
2401.000000	13.047870
2400.000000	13.085544
2399.000000	13.136124
2398.000000	13.170364
2397.000000	13.196695
2396.000000	13.238220
2395.000000	13.257265
2394.000000	13.280682
2393.000000	13.308990
2392.000000	13.337090
2391.000000	13.355406
2390.000000	13.375076
2389.000000	13.406923
2388.000000	13.421701
2387.000000	13.431484
2386.000000	13.448760
2385.000000	13.472072
2384.000000	13.481751
2383.000000	13.475715
2382.000000	13.466244
2381.000000	13.464683
2380.000000	13.461769
2379.000000	13.466244
2378.000000	13.455629
2377.000000	13.447199
2376.000000	13.441683
2375.000000	13.435231
2374.000000	13.427113
2373.000000	13.415561
2372.000000	13.389646
2371.000000	13.360194
2370.000000	13.329908
2369.000000	13.291922
2368.000000	13.274541
2367.000000	13.256121
2366.000000	13.219383
2365.000000	13.166097
2364.000000	13.122490
2363.000000	13.081173
2362.000000	13.033092
2361.000000	12.983657
2360.000000	12.922774
2359.000000	12.872819
2358.000000	12.831085
2357.000000	12.804755
2356.000000	12.768329
2355.000000	12.721080
2354.000000	12.691835
2353.000000	12.674871
2352.000000	12.664360
2351.000000	12.654577
2350.000000	12.662279
2349.000000	12.671541
2348.000000	12.655098
2347.000000	12.678410
2346.000000	12.718374
2345.000000	12.749596
2344.000000	12.797053
2343.000000	12.827651
2342.000000	12.860746
2341.000000	12.883746
2340.000000	12.908308
2339.000000	12.937240
2338.000000	12.958575
2337.000000	12.981367
2336.000000	12.984698
2335.000000	12.984593
2334.000000	12.968150
2333.000000	12.950874
2332.000000	12.934951
2331.000000	12.912471
2330.000000	12.883018
2329.000000	12.842429
2328.000000	12.784981
2327.000000	12.743976
2326.000000	12.683926
2325.000000	12.618776
2324.000000	12.550816
2323.000000	12.472033
2322.000000	12.389919
2321.000000	12.310719
2320.000000	12.229022
2319.000000	12.120161
2318.000000	12.017753
2317.000000	11.906499
2316.000000	11.791706
2315.000000	11.681388
2314.000000	11.565971
2313.000000	11.456174
2312.000000	11.361571
2311.000000	11.246987
2310.000000	11.174239
2309.000000	11.101909
2308.000000	11.044981
2307.000000	10.970256
2306.000000	10.929667
2305.000000	10.928418
2304.000000	10.943509
2303.000000	10.966197
2302.000000	10.986075
2301.000000	11.027912
2300.000000	11.107424
2299.000000	11.184647
2298.000000	11.270195
2297.000000	11.341069
2296.000000	11.430988
2295.000000	11.506962
2294.000000	11.590220
2293.000000	11.680139
2292.000000	11.721040
2291.000000	11.787127
2290.000000	11.830421
2289.000000	11.887974
2288.000000	11.910974
2287.000000	11.904209
2286.000000	11.902336
2285.000000	11.876005
2284.000000	11.870385
2283.000000	11.838851
2282.000000	11.805236
2281.000000	11.763710
2280.000000	11.700850
2279.000000	11.640904
2278.000000	11.610202
2277.000000	11.566179
2276.000000	11.503631
2275.000000	11.458880
2274.000000	11.422662
2273.000000	11.402472
2272.000000	11.363965
2271.000000	11.376350
2270.000000	11.368648
2269.000000	11.399142
2268.000000	11.436400
2267.000000	11.484066
2266.000000	11.552442
2265.000000	11.665257
2264.000000	11.781923
2263.000000	11.909413
2262.000000	12.087690
2261.000000	12.274085
2260.000000	12.472345
2259.000000	12.672998
2258.000000	12.908100
2257.000000	13.137581
2256.000000	13.371226
2255.000000	13.607576
2254.000000	13.857248
2253.000000	14.093494
2252.000000	14.336505
2251.000000	14.549126
2250.000000	14.772051
2249.000000	14.974682
2248.000000	15.142864
2247.000000	15.350178
2246.000000	15.534076
2245.000000	15.702570
2244.000000	15.810182
2243.000000	15.962441
2242.000000	16.103148
2241.000000	16.208470
2240.000000	16.304946
2239.000000	16.406938
2238.000000	16.509554
2237.000000	16.604261
2236.000000	16.663374
2235.000000	16.727692
2234.000000	16.775565
2233.000000	16.822814
2232.000000	16.890982
2231.000000	16.925118
2230.000000	16.937191
2229.000000	16.983399
2228.000000	17.007024
2227.000000	16.979861
2226.000000	16.989644
2225.000000	16.989332
2224.000000	16.992870
2223.000000	16.953635
2222.000000	16.938336
2221.000000	16.915336
2220.000000	16.884218
2219.000000	16.839258
2218.000000	16.820525
2217.000000	16.760891
2216.000000	16.727171
2215.000000	16.704587
2214.000000	16.674510
2213.000000	16.632777
2212.000000	16.586464
2211.000000	16.569708
2210.000000	16.532866
2209.000000	16.509034
2208.000000	16.487074
2207.000000	16.447526
2206.000000	16.410789
2205.000000	16.377797
2204.000000	16.381752
2203.000000	16.355109
2202.000000	16.337833
2201.000000	16.311294
2200.000000	16.315978
2199.000000	16.291312
2198.000000	16.266751
2197.000000	16.244896
2196.000000	16.230013
2195.000000	16.229493
2194.000000	16.216796
2193.000000	16.171004
2192.000000	16.159452
2191.000000	16.176936
2190.000000	16.136764
2189.000000	16.130207
2188.000000	16.128126
2187.000000	16.084311
2186.000000	16.076817
2185.000000	16.088578
2184.000000	16.065786
2183.000000	16.042057
2182.000000	16.038831
2181.000000	16.033939
2180.000000	16.033731
2179.000000	16.003238
2178.000000	16.000532
2177.000000	15.976699
2176.000000	15.956509
2175.000000	15.954844
2174.000000	15.980758
2173.000000	15.959215
2172.000000	15.975346
2171.000000	15.984088
2170.000000	15.987210
2169.000000	15.993143
2168.000000	16.019889
2167.000000	16.038102
2166.000000	16.052152
2165.000000	16.068179
2164.000000	16.106999
2163.000000	16.131872
2162.000000	16.159660
2161.000000	16.180787
2160.000000	16.225122
2159.000000	16.264045
2158.000000	16.304634
2157.000000	16.360521
2156.000000	16.399965
2155.000000	16.438264
2154.000000	16.495816
2153.000000	16.550455
2152.000000	16.609672
2151.000000	16.658275
2150.000000	16.709895
2149.000000	16.768696
2148.000000	16.818339
2147.000000	16.872666
2146.000000	16.917833
2145.000000	16.968101
2144.000000	17.022531
2143.000000	17.078731
2142.000000	17.129206
2141.000000	17.175102
2140.000000	17.203514
2139.000000	17.251700
2138.000000	17.287606
2137.000000	17.327986
2136.000000	17.369511
2135.000000	17.412493
2134.000000	17.434869
2133.000000	17.446109
2132.000000	17.463073
2131.000000	17.503037
2130.000000	17.512508
2129.000000	17.516254
2128.000000	17.526454
2127.000000	17.537381
2126.000000	17.552472
2125.000000	17.551743
2124.000000	17.538942
2123.000000	17.541024
2122.000000	17.530929
2121.000000	17.523331
2120.000000	17.512820
2119.000000	17.491589
2118.000000	17.470358
2117.000000	17.454331
2116.000000	17.424982
2115.000000	17.398444
2114.000000	17.372946
2113.000000	17.341515
2112.000000	17.307588
2111.000000	17.293850
2110.000000	17.265126
2109.000000	17.235569
2108.000000	17.190817
2107.000000	17.154912
2106.000000	17.124731
2105.000000	17.099961
2104.000000	17.057812
2103.000000	17.024404
2102.000000	16.989123
2101.000000	16.945309
2100.000000	16.916168
2099.000000	16.880367
2098.000000	16.846335
2097.000000	16.815425
2096.000000	16.777126
2095.000000	16.747570
2094.000000	16.717284
2093.000000	16.690121
2092.000000	16.672637
2091.000000	16.659419
2090.000000	16.621849
2089.000000	16.593541
2088.000000	16.588233
2087.000000	16.552120
2086.000000	16.524332
2085.000000	16.497794
2084.000000	16.458870
2083.000000	16.422653
2082.000000	16.389974
2081.000000	16.351779
2080.000000	16.314104
2079.000000	16.279760
2078.000000	16.228556
2077.000000	16.169963
2076.000000	16.120945
2075.000000	16.064016
2074.000000	16.006568
2073.000000	15.962025
2072.000000	15.909364
2071.000000	15.838178
2070.000000	15.774277
2069.000000	15.710896
2068.000000	15.639085
2067.000000	15.576329
2066.000000	15.509306
2065.000000	15.446446
2064.000000	15.383586
2063.000000	15.332902
2062.000000	15.273476
2061.000000	15.217901
2060.000000	15.163367
2059.000000	15.109977
2058.000000	15.064809
2057.000000	15.028280
2056.000000	15.011940
2055.000000	15.002990
2054.000000	14.988315
2053.000000	14.992791
2052.000000	14.996121
2051.000000	15.024845
2050.000000	15.065850
2049.000000	15.119760
2048.000000	15.179602
2047.000000	15.242462
2046.000000	15.316354
2045.000000	15.382233
2044.000000	15.458206
2043.000000	15.548438
2042.000000	15.629407
2041.000000	15.710584
2040.000000	15.789263
2039.000000	15.880535
2038.000000	15.968789
2037.000000	16.041849
2036.000000	16.101171
2035.000000	16.165488
2034.000000	16.233968
2033.000000	16.301824
2032.000000	16.345535
2031.000000	16.401006
2030.000000	16.443259
2029.000000	16.497482
2028.000000	16.519545
2027.000000	16.540880
2026.000000	16.587297
2025.000000	16.608111
2024.000000	16.621953
2023.000000	16.645890
2022.000000	16.668370
2021.000000	16.696782
2020.000000	16.701777
2019.000000	16.722176
2018.000000	16.699384
2017.000000	16.692203
2016.000000	16.695429
2015.000000	16.701465
2014.000000	16.704483
2013.000000	16.694908
2012.000000	16.664311
2011.000000	16.638293
2010.000000	16.623202
2009.000000	16.613627
2008.000000	16.556387
2007.000000	16.518712
2006.000000	16.479269
2005.000000	16.433268
2004.000000	16.384770
2003.000000	16.357087
2002.000000	16.309005
2001.000000	16.238339
2000.000000	16.195669
1999.000000	16.108560
1998.000000	16.037166
1997.000000	15.973681
1996.000000	15.914359
1995.000000	15.835368
1994.000000	15.755543
1993.000000	15.687375
1992.000000	15.615565
1991.000000	15.515342
1990.000000	15.430315
1989.000000	15.338210
1988.000000	15.270978
1987.000000	15.171588
1986.000000	15.088330
1985.000000	15.016936
1984.000000	14.908387
1983.000000	14.828667
1982.000000	14.716788
1981.000000	14.623331
1980.000000	14.539760
1979.000000	14.456085
1978.000000	14.361899
1977.000000	14.269378
1976.000000	14.174046
1975.000000	14.083191
1974.000000	13.991294
1973.000000	13.905121
1972.000000	13.827795
1971.000000	13.744744
1970.000000	13.643585
1969.000000	13.572087
1968.000000	13.481751
1967.000000	13.409212
1966.000000	13.323456
1965.000000	13.258826
1964.000000	13.158084
1963.000000	13.102508
1962.000000	12.997186
1961.000000	12.926208
1960.000000	12.849298
1959.000000	12.779881
1958.000000	12.701722
1957.000000	12.642921
1956.000000	12.583079
1955.000000	12.518762
1954.000000	12.442580
1953.000000	12.358801
1952.000000	12.288760
1951.000000	12.237244
1950.000000	12.165745
1949.000000	12.108505
1948.000000	12.084672
1947.000000	12.000789
1946.000000	11.962698
1945.000000	11.915137
1944.000000	11.888598
1943.000000	11.852277
1942.000000	11.815122
1941.000000	11.793683
1940.000000	11.794932
1939.000000	11.748724
1938.000000	11.793996
1937.000000	11.774430
1936.000000	11.807005
1935.000000	11.786086
1934.000000	11.800552
1933.000000	11.871322
1932.000000	11.886829
1931.000000	11.896091
1930.000000	11.948024
1929.000000	12.054491
1928.000000	12.133066
1927.000000	12.216741
1926.000000	12.314570
1925.000000	12.403761
1924.000000	12.507522
1923.000000	12.582559
1922.000000	12.711089
1921.000000	12.892905
1920.000000	13.072327
1919.000000	13.225835
1918.000000	13.400678
1917.000000	13.563241
1916.000000	13.703115
1915.000000	13.839035
1914.000000	14.009611
1913.000000	14.275518
1912.000000	14.537366
1911.000000	14.772780
1910.000000	14.988940
1909.000000	15.174294
1908.000000	15.386604
1907.000000	15.604533
1906.000000	15.877621
1905.000000	16.206597
1904.000000	16.550351
1903.000000	16.869960
1902.000000	17.158763
1901.000000	17.458077
1900.000000	17.797668
1899.000000	18.174934
1898.000000	18.555738
1897.000000	18.923949
1896.000000	19.299653
1895.000000	19.594285
1894.000000	19.919410
1893.000000	20.283562
1892.000000	20.681330
1891.000000	21.161107
1890.000000	21.631310
1889.000000	22.046250
1888.000000	22.484190
1887.000000	22.924941
1886.000000	23.356845
1885.000000	23.831627
1884.000000	24.340233
1883.000000	24.893694
1882.000000	25.400947
1881.000000	25.918607
1880.000000	26.404942
1879.000000	26.841321
1878.000000	27.328904
1877.000000	27.792342
1876.000000	28.228825
1875.000000	28.640122
1874.000000	29.077334
1873.000000	29.471876
1872.000000	29.874951
1871.000000	30.231090
1870.000000	30.576925
1869.000000	30.901322
1868.000000	31.190021
1867.000000	31.393068
1866.000000	31.576445
1865.000000	31.711844
1864.000000	31.875031
1863.000000	31.986806
1862.000000	32.101494
1861.000000	32.245011
1860.000000	32.384365
1859.000000	32.497597
1858.000000	32.605937
1857.000000	32.709906
1856.000000	32.781197
1855.000000	32.816894
1854.000000	32.873301
1853.000000	32.913994
1852.000000	32.919198
1851.000000	32.918885
1850.000000	32.939076
1849.000000	32.944696
1848.000000	32.968424
1847.000000	32.996524
1846.000000	33.003081
1845.000000	32.955207
1844.000000	32.892867
1843.000000	32.829278
1842.000000	32.835107
1841.000000	32.869763
1840.000000	32.877777
1839.000000	32.880482
1838.000000	32.839790
1837.000000	32.809296
1836.000000	32.776826
1835.000000	32.764129
1834.000000	32.724477
1833.000000	32.639241
1832.000000	32.563579
1831.000000	32.511959
1830.000000	32.475533
1829.000000	32.444520
1828.000000	32.388840
1827.000000	32.327958
1826.000000	32.267491
1825.000000	32.219930
1824.000000	32.154676
1823.000000	32.107531
1822.000000	32.099101
1821.000000	32.104304
1820.000000	32.095042
1819.000000	32.085987
1818.000000	32.041964
1817.000000	31.998774
1816.000000	31.965158
1815.000000	31.960787
1814.000000	31.957561
1813.000000	31.939660
1812.000000	31.920927
1811.000000	31.904171
1810.000000	31.876280
1809.000000	31.834546
1808.000000	31.786673
1807.000000	31.744211
1806.000000	31.711948
1805.000000	31.657102
1804.000000	31.610789
1803.000000	31.569888
1802.000000	31.515458
1801.000000	31.487774
1800.000000	31.445000
1799.000000	31.374543
1798.000000	31.329791
1797.000000	31.282542
1796.000000	31.233315
1795.000000	31.194912
1794.000000	31.150785
1793.000000	31.104889
1792.000000	31.064092
1791.000000	31.012888
1790.000000	30.949924
1789.000000	30.887896
1788.000000	30.847308
1787.000000	30.813796
1786.000000	30.766755
1785.000000	30.711284
1784.000000	30.637392
1783.000000	30.582129
1782.000000	30.531341
1781.000000	30.469106
1780.000000	30.423001
1779.000000	30.341408
1778.000000	30.267620
1777.000000	30.205696
1776.000000	30.123270
1775.000000	30.036473
1774.000000	29.963101
1773.000000	29.871517
1772.000000	29.770878
1771.000000	29.686683
1770.000000	29.577198
1769.000000	29.477496
1768.000000	29.386536
1767.000000	29.290372
1766.000000	29.211589
1765.000000	29.152995
1764.000000	29.080248
1763.000000	29.044967
1762.000000	29.032270
1761.000000	29.041533
1760.000000	29.058809
1759.000000	29.091800
1758.000000	29.151226
1757.000000	29.211276
1756.000000	29.276218
1755.000000	29.320033
1754.000000	29.358852
1753.000000	29.394966
1752.000000	29.406101
1751.000000	29.415364
1750.000000	29.419943
1749.000000	29.396215
1748.000000	29.357291
1747.000000	29.314309
1746.000000	29.264250
1745.000000	29.190045
1744.000000	29.084203
1743.000000	28.967329
1742.000000	28.834531
1741.000000	28.687788
1740.000000	28.530221
1739.000000	28.348926
1738.000000	28.177101
1737.000000	27.999239
1736.000000	27.857596
1735.000000	27.723445
1734.000000	27.639771
1733.000000	27.586901
1732.000000	27.550372
1731.000000	27.560883
1730.000000	27.601992
1729.000000	27.647368
1728.000000	27.725111
1727.000000	27.805663
1726.000000	27.872166
1725.000000	27.939397
1724.000000	27.988208
1723.000000	28.048570
1722.000000	28.111118
1721.000000	28.161281
1720.000000	28.213526
1719.000000	28.303550
1718.000000	28.365265
1717.000000	28.445193
1716.000000	28.544271
1715.000000	28.644285
1714.000000	28.754187
1713.000000	28.854721
1712.000000	28.950261
1711.000000	29.023008
1710.000000	29.098669
1709.000000	29.136864
1708.000000	29.153932
1707.000000	29.205240
1706.000000	29.220539
1705.000000	29.175891
1704.000000	29.147792
1703.000000	29.122814
1702.000000	29.065886
1701.000000	28.985437
1700.000000	28.897704
1699.000000	28.777083
1698.000000	28.663747
1697.000000	28.548954
1696.000000	28.469026
1695.000000	28.399089
1694.000000	28.391491
1693.000000	28.406686
1692.000000	28.465279
1691.000000	28.568520
1690.000000	28.680607
1689.000000	28.793318
1688.000000	28.886672
1687.000000	28.947555
1686.000000	28.996053
1685.000000	29.047465
1684.000000	29.130932
1683.000000	29.250720
1682.000000	29.444505
1681.000000	29.717697
1680.000000	30.053333
1679.000000	30.455264
1678.000000	30.873430
1677.000000	31.307832
1676.000000	31.726414
1675.000000	32.090463
1674.000000	32.431302
1673.000000	32.701060
1672.000000	32.970506
1671.000000	33.204150
1670.000000	33.399808
1669.000000	33.598900
1668.000000	33.733675
1667.000000	33.887183
1666.000000	34.010093
1665.000000	34.119058
1664.000000	34.234475
1663.000000	34.293797
1662.000000	34.395685
1661.000000	34.482066
1660.000000	34.540971
1659.000000	34.611324
1658.000000	34.658262
1657.000000	34.696040
1656.000000	34.722683
1655.000000	34.730905
1654.000000	34.770244
1653.000000	34.750991
1652.000000	34.760357
1651.000000	34.766290
1650.000000	34.736421
1649.000000	34.726221
1648.000000	34.693542
1647.000000	34.681678
1646.000000	34.636302
1645.000000	34.609139
1644.000000	34.561473
1643.000000	34.541075
1642.000000	34.490912
1641.000000	34.444287
1640.000000	34.403698
1639.000000	34.360300
1638.000000	34.305974
1637.000000	34.269444
1636.000000	34.200651
1635.000000	34.145909
1634.000000	34.084506
1633.000000	34.025392
1632.000000	33.967840
1631.000000	33.923192
1630.000000	33.849508
1629.000000	33.756259
1628.000000	33.701100
1627.000000	33.632412
1626.000000	33.541452
1625.000000	33.471723
1624.000000	33.392107
1623.000000	33.337156
1622.000000	33.253377
1621.000000	33.182399
1620.000000	33.112982
1619.000000	33.050850
1618.000000	32.985492
1617.000000	32.909623
1616.000000	32.837812
1615.000000	32.760590
1614.000000	32.678164
1613.000000	32.626544
1612.000000	32.557439
1611.000000	32.476054
1610.000000	32.431094
1609.000000	32.343673
1608.000000	32.280812
1607.000000	32.203382
1606.000000	32.115440
1605.000000	32.049978
1604.000000	31.972443
1603.000000	31.888456
1602.000000	31.814877
1601.000000	31.723396
1600.000000	31.653355
1599.000000	31.576653
1598.000000	31.498182
1597.000000	31.412425
1596.000000	31.357371
1595.000000	31.285768
1594.000000	31.201989
1593.000000	31.129554
1592.000000	31.080120
1591.000000	30.993635
1590.000000	30.935354
1589.000000	30.871140
1588.000000	30.796728
1587.000000	30.745628
1586.000000	30.679750
1585.000000	30.608564
1584.000000	30.562667
1583.000000	30.510527
1582.000000	30.456721
1581.000000	30.392612
1580.000000	30.341616
1579.000000	30.296864
1578.000000	30.242954
1577.000000	30.201741
1576.000000	30.164587
1575.000000	30.134302
1574.000000	30.097772
1573.000000	30.072482
1572.000000	30.048337
1571.000000	30.028355
1570.000000	30.005563
1569.000000	30.002545
1568.000000	29.989536
1567.000000	29.978400
1566.000000	29.976943
1565.000000	29.963206
1564.000000	29.940622
1563.000000	29.924907
1562.000000	29.924803
1561.000000	29.901802
1560.000000	29.887961
1559.000000	29.872350
1558.000000	29.846331
1557.000000	29.827806
1556.000000	29.804286
1555.000000	29.767548
1554.000000	29.732683
1553.000000	29.691678
1552.000000	29.660873
1551.000000	29.626216
1550.000000	29.568560
1549.000000	29.525473
1548.000000	29.486030
1547.000000	29.452830
1546.000000	29.412970
1545.000000	29.371445
1544.000000	29.327214
1543.000000	29.308377
1542.000000	29.279340
1541.000000	29.241666
1540.000000	29.218353
1539.000000	29.202951
1538.000000	29.167253
1537.000000	29.136760
1536.000000	29.114176
1535.000000	29.096484
1534.000000	29.068592
1533.000000	29.038099
1532.000000	29.004379
1531.000000	28.968265
1530.000000	28.931632
1529.000000	28.883238
1528.000000	28.837549
1527.000000	28.807784
1526.000000	28.770006
1525.000000	28.720883
1524.000000	28.670616
1523.000000	28.631901
1522.000000	28.591624
1521.000000	28.529180
1520.000000	28.479850
1519.000000	28.428750
1518.000000	28.379523
1517.000000	28.335604
1516.000000	28.293871
1515.000000	28.239753
1514.000000	28.178037
1513.000000	28.129643
1512.000000	28.060955
1511.000000	28.012561
1510.000000	27.966977
1509.000000	27.899329
1508.000000	27.830225
1507.000000	27.767781
1506.000000	27.715640
1505.000000	27.660793
1504.000000	27.599910
1503.000000	27.543295
1502.000000	27.492195
1501.000000	27.446298
1500.000000	27.381565
1499.000000	27.325261
1498.000000	27.295184
1497.000000	27.260632
1496.000000	27.204536
1495.000000	27.165821
1494.000000	27.141572
1493.000000	27.104106
1492.000000	27.065494
1491.000000	27.031566
1490.000000	27.010544
1489.000000	27.000969
1488.000000	26.987023
1487.000000	26.960693
1486.000000	26.930928
1485.000000	26.899914
1484.000000	26.878058
1483.000000	26.856099
1482.000000	26.846212
1481.000000	26.833515
1480.000000	26.830705
1479.000000	26.812805
1478.000000	26.805728
1477.000000	26.806456
1476.000000	26.798234
1475.000000	26.795424
1474.000000	26.814886
1473.000000	26.825501
1472.000000	26.840176
1471.000000	26.860054
1470.000000	26.869837
1469.000000	26.889819
1468.000000	26.895647
1467.000000	26.899289
1466.000000	26.927285
1465.000000	26.948724
1464.000000	26.969747
1463.000000	26.996910
1462.000000	27.021888
1461.000000	27.048010
1460.000000	27.094010
1459.000000	27.129083
1458.000000	27.173106
1457.000000	27.220043
1456.000000	27.285193
1455.000000	27.347533
1454.000000	27.390827
1453.000000	27.465760
1452.000000	27.525290
1451.000000	27.611463
1450.000000	27.692952
1449.000000	27.740826
1448.000000	27.799107
1447.000000	27.867171
1446.000000	27.959692
1445.000000	28.054502
1444.000000	28.143901
1443.000000	28.185947
1442.000000	28.263585
1441.000000	28.384831
1440.000000	28.472460
1439.000000	28.563941
1438.000000	28.664372
1437.000000	28.756164
1436.000000	28.853369
1435.000000	28.942872
1434.000000	29.039764
1433.000000	29.166525
1432.000000	29.289644
1431.000000	29.410473
1430.000000	29.521519
1429.000000	29.655773
1428.000000	29.797209
1427.000000	29.959563
1426.000000	30.099437
1425.000000	30.273552
1424.000000	30.442359
1423.000000	30.620116
1422.000000	30.811090
1421.000000	31.011015
1420.000000	31.210731
1419.000000	31.469562
1418.000000	31.684369
1417.000000	31.865144
1416.000000	32.056743
1415.000000	32.329831
1414.000000	32.618634
1413.000000	32.868826
1412.000000	33.124430
1411.000000	33.381699
1410.000000	33.671647
1409.000000	34.016962
1408.000000	34.354680
1407.000000	34.702597
1406.000000	35.057903
1405.000000	35.425906
1404.000000	35.768515
1403.000000	36.167948
1402.000000	36.506186
1401.000000	36.883972
1400.000000	37.304740
1399.000000	37.679091
1398.000000	37.943958
1397.000000	38.214756
1396.000000	38.558302
1395.000000	38.930572
1394.000000	39.219375
1393.000000	39.473938
1392.000000	39.721945
1391.000000	40.038015
1390.000000	40.338371
1389.000000	40.605943
1388.000000	41.018593
1387.000000	41.403144
1386.000000	41.800183
1385.000000	42.228237
1384.000000	42.700209
1383.000000	43.119728
1382.000000	43.618759
1381.000000	44.018400
1380.000000	44.357471
1379.000000	44.579980
1378.000000	44.795411
1377.000000	44.944444
1376.000000	45.122305
1375.000000	45.303497
1374.000000	45.480213
1373.000000	45.732070
1372.000000	46.037109
1371.000000	46.316962
1370.000000	46.616485
1369.000000	46.875523
1368.000000	47.155272
1367.000000	47.401717
1366.000000	47.641190
1365.000000	47.800526
1364.000000	48.004926
1363.000000	48.152502
1362.000000	48.361585
1361.000000	48.516550
1360.000000	48.653302
1359.000000	48.662669
1358.000000	48.780063
1357.000000	48.893087
1356.000000	49.025676
1355.000000	49.245895
1354.000000	49.540630
1353.000000	49.843171
1352.000000	50.155599
1351.000000	50.599680
1350.000000	50.986208
1349.000000	51.382623
1348.000000	51.726064
1347.000000	52.070547
1346.000000	52.405454
1345.000000	52.644927
1344.000000	52.984518
1343.000000	53.268013
1342.000000	53.531423
1341.000000	53.797434
1340.000000	54.083219
1339.000000	54.336533
1338.000000	54.589015
1337.000000	54.841289
1336.000000	55.097621
1335.000000	55.344795
1334.000000	55.581457
1333.000000	55.799803
1332.000000	56.026371
1331.000000	56.238472
1330.000000	56.430383
1329.000000	56.631244
1328.000000	56.847508
1327.000000	57.033904
1326.000000	57.198443
1325.000000	57.354553
1324.000000	57.534808
1323.000000	57.678013
1322.000000	57.825693
1321.000000	57.971812
1320.000000	58.117514
1319.000000	58.249167
1318.000000	58.377697
1317.000000	58.500400
1316.000000	58.614256
1315.000000	58.705528
1314.000000	58.828334
1313.000000	58.940317
1312.000000	59.025449
1311.000000	59.122237
1310.000000	59.205079
1309.000000	59.293854
1308.000000	59.372325
1307.000000	59.428421
1306.000000	59.501064
1305.000000	59.549874
1304.000000	59.603264
1303.000000	59.644373
1302.000000	59.685690
1301.000000	59.710563
1300.000000	59.728568
1299.000000	59.759269
1298.000000	59.776754
1297.000000	59.802460
1296.000000	59.819320
1295.000000	59.829207
1294.000000	59.835139
1293.000000	59.844297
1292.000000	59.849293
1291.000000	59.817655
1290.000000	59.806831
1289.000000	59.800899
1288.000000	59.783102
1287.000000	59.762079
1286.000000	59.725966
1285.000000	59.679549
1284.000000	59.646766
1283.000000	59.600974
1282.000000	59.551227
1281.000000	59.509181
1280.000000	59.470570
1279.000000	59.428525
1278.000000	59.382628
1277.000000	59.352863
1276.000000	59.300411
1275.000000	59.252225
1274.000000	59.220690
1273.000000	59.181247
1272.000000	59.157310
1271.000000	59.133477
1270.000000	59.107875
1269.000000	59.075092
1268.000000	59.050947
1267.000000	59.023784
1266.000000	58.995892
1265.000000	58.964774
1264.000000	58.931679
1263.000000	58.907638
1262.000000	58.878810
1261.000000	58.864864
1260.000000	58.845923
1259.000000	58.808664
1258.000000	58.782230
1257.000000	58.753610
1256.000000	58.723949
1255.000000	58.696057
1254.000000	58.657550
1253.000000	58.623206
1252.000000	58.574083
1251.000000	58.535056
1250.000000	58.491345
1249.000000	58.435042
1248.000000	58.379571
1247.000000	58.322747
1246.000000	58.252913
1245.000000	58.171216
1244.000000	58.094930
1243.000000	58.020206
1242.000000	57.924562
1241.000000	57.837037
1240.000000	57.757629
1239.000000	57.661777
1238.000000	57.556663
1237.000000	57.456649
1236.000000	57.349974
1235.000000	57.244860
1234.000000	57.133710
1233.000000	57.019646
1232.000000	56.911201
1231.000000	56.790788
1230.000000	56.667045
1229.000000	56.549235
1228.000000	56.429550
1227.000000	56.299563
1226.000000	56.171553
1225.000000	56.042502
1224.000000	55.910225
1223.000000	55.788563
1222.000000	55.652644
1221.000000	55.512561
1220.000000	55.374560
1219.000000	55.255604
1218.000000	55.146535
1217.000000	55.020190
1216.000000	54.912579
1215.000000	54.798098
1214.000000	54.688405
1213.000000	54.586413
1212.000000	54.488376
1211.000000	54.381181
1210.000000	54.279189
1209.000000	54.199261
1208.000000	54.103305
1207.000000	54.001626
1206.000000	53.925548
1205.000000	53.879548
1204.000000	53.818769
1203.000000	53.768814
1202.000000	53.736135
1201.000000	53.678999
1200.000000	53.630605
1199.000000	53.579713
1198.000000	53.506549
1197.000000	53.418399
1196.000000	53.294448
1195.000000	53.146144
1194.000000	52.956314
1193.000000	52.714032
1192.000000	52.424604
1191.000000	52.095524
1190.000000	51.748336
1189.000000	51.420505
1188.000000	51.120046
1187.000000	50.894519
1186.000000	50.739866
1185.000000	50.665766
1184.000000	50.690432
1183.000000	50.828745
1182.000000	51.054896
1181.000000	51.338808
1180.000000	51.684747
1179.000000	52.057225
1178.000000	52.420129
1177.000000	52.736928
1176.000000	53.018550
1175.000000	53.290597
1174.000000	53.534857
1173.000000	53.742379
1172.000000	53.988200
1171.000000	54.231315
1170.000000	54.477449
1169.000000	54.736903
1168.000000	54.997607
1167.000000	55.275170
1166.000000	55.541389
1165.000000	55.820826
1164.000000	56.118684
1163.000000	56.427781
1162.000000	56.745517
1161.000000	57.045768
1160.000000	57.344978
1159.000000	57.650954
1158.000000	57.946210
1157.000000	58.238655
1156.000000	58.507164
1155.000000	58.747365
1154.000000	58.954783
1153.000000	59.133061
1152.000000	59.269917
1151.000000	59.389185
1150.000000	59.481186
1149.000000	59.569752
1148.000000	59.636567
1147.000000	59.727215
1146.000000	59.850229
1145.000000	60.011959
1144.000000	60.192734
1143.000000	60.439700
1142.000000	60.724237
1141.000000	61.028234
1140.000000	61.342223
1139.000000	61.665683
1138.000000	62.009229
1137.000000	62.371196
1136.000000	62.735036
1135.000000	63.140921
1134.000000	63.527345
1133.000000	63.867248
1132.000000	64.180092
1131.000000	64.508548
1130.000000	64.801306
1129.000000	65.057742
1128.000000	65.271196
1127.000000	65.467687
1126.000000	65.614950
1125.000000	65.751286
1124.000000	65.860771
1123.000000	65.966301
1122.000000	66.035510
1121.000000	66.109610
1120.000000	66.178090
1119.000000	66.208376
1118.000000	66.247299
1117.000000	66.264888
1116.000000	66.279458
1115.000000	66.297671
1114.000000	66.310992
1113.000000	66.299752
1112.000000	66.298711
1111.000000	66.294444
1110.000000	66.303186
1109.000000	66.294340
1108.000000	66.285390
1107.000000	66.285182
1106.000000	66.274254
1105.000000	66.281539
1104.000000	66.273213
1103.000000	66.251982
1102.000000	66.243969
1101.000000	66.247403
1100.000000	66.229711
1099.000000	66.192973
1098.000000	66.190475
1097.000000	66.162792
1096.000000	66.149054
1095.000000	66.110339
1094.000000	66.084841
1093.000000	66.043732
1092.000000	66.015216
1091.000000	65.983578
1090.000000	65.930708
1089.000000	65.897197
1088.000000	65.847450
1087.000000	65.837979
1086.000000	65.789169
1085.000000	65.726413
1084.000000	65.702268
1083.000000	65.646693
1082.000000	65.606832
1081.000000	65.565203
1080.000000	65.517850
1079.000000	65.458008
1078.000000	65.434799
1077.000000	65.371107
1076.000000	65.336971
1075.000000	65.297839
1074.000000	65.265160
1073.000000	65.228630
1072.000000	65.177947
1071.000000	65.139544
1070.000000	65.086778
1069.000000	65.058783
1068.000000	65.020692
1067.000000	64.962931
1066.000000	64.930044
1065.000000	64.901216
1064.000000	64.859587
1063.000000	64.809840
1062.000000	64.767794
1061.000000	64.726477
1060.000000	64.681517
1059.000000	64.652169
1058.000000	64.608770
1057.000000	64.551634
1056.000000	64.512294
1055.000000	64.469416
1054.000000	64.426122
1053.000000	64.387927
1052.000000	64.333913
1051.000000	64.313827
1050.000000	64.278962
1049.000000	64.238790
1048.000000	64.225260
1047.000000	64.175825
1046.000000	64.139400
1045.000000	64.104847
1044.000000	64.077684
1043.000000	64.037720
1042.000000	64.023358
1041.000000	63.984539
1040.000000	63.974756
1039.000000	63.944783
1038.000000	63.929172
1037.000000	63.878696
1036.000000	63.849556
1035.000000	63.812922
1034.000000	63.769211
1033.000000	63.731641
1032.000000	63.691156
1031.000000	63.633916
1030.000000	63.574802
1029.000000	63.545246
1028.000000	63.495395
1027.000000	63.437322
1026.000000	63.388720
1025.000000	63.333561
1024.000000	63.283814
1023.000000	63.207424
1022.000000	63.146229
1021.000000	63.085970
1020.000000	63.021549
1019.000000	62.965037
1018.000000	62.903426
1017.000000	62.836403
1016.000000	62.765009
1015.000000	62.714325
1014.000000	62.685184
1013.000000	62.618786
1012.000000	62.567269
1011.000000	62.547079
1010.000000	62.492233
1009.000000	62.461219
1008.000000	62.439572
1007.000000	62.383268
1006.000000	62.365055
1005.000000	62.332272
1004.000000	62.317390
1003.000000	62.281901
1002.000000	62.261606
1001.000000	62.238190
1000.000000	62.204886
999.000000	62.180950
998.000000	62.151913
997.000000	62.122565
996.000000	62.114343
995.000000	62.084682
994.000000	62.083121
993.000000	62.072922
992.000000	62.075732
991.000000	62.060433
990.000000	62.047007
989.000000	62.058976
988.000000	62.075523
987.000000	62.085306
986.000000	62.091134
985.000000	62.118714
984.000000	62.147126
983.000000	62.183031
982.000000	62.218624
981.000000	62.261919
980.000000	62.306046
979.000000	62.352462
978.000000	62.398046
977.000000	62.456015
976.000000	62.510966
975.000000	62.577469
974.000000	62.639080
973.000000	62.685393
972.000000	62.724212
971.000000	62.787905
970.000000	62.858987
969.000000	62.924033
968.000000	62.989182
967.000000	63.037681
966.000000	63.113654
965.000000	63.171831
964.000000	63.233130
963.000000	63.298904
962.000000	63.359683
961.000000	63.419109
960.000000	63.472499
959.000000	63.537024
958.000000	63.585314
957.000000	63.622988
956.000000	63.671591
955.000000	63.690324
954.000000	63.711867
953.000000	63.730080
952.000000	63.750166
951.000000	63.757451
950.000000	63.760053
949.000000	63.762342
948.000000	63.751623
947.000000	63.745170
946.000000	63.730912
945.000000	63.711034
944.000000	63.710410
943.000000	63.693342
942.000000	63.652441
941.000000	63.620907
940.000000	63.619970
939.000000	63.598115
938.000000	63.556798
937.000000	63.533589
936.000000	63.523286
935.000000	63.531300
934.000000	63.521101
933.000000	63.510277
932.000000	63.518291
931.000000	63.524847
930.000000	63.551802
929.000000	63.569078
928.000000	63.579798
927.000000	63.608730
926.000000	63.632459
925.000000	63.669301
924.000000	63.714781
923.000000	63.775976
922.000000	63.825723
921.000000	63.901176
920.000000	63.955919
919.000000	63.989534
918.000000	64.066965
917.000000	64.141065
916.000000	64.202468
915.000000	64.264496
914.000000	64.312161
913.000000	64.361700
912.000000	64.430180
911.000000	64.478262
910.000000	64.544349
909.000000	64.599299
908.000000	64.642906
907.000000	64.722106
906.000000	64.789129
905.000000	64.848243
904.000000	64.912768
903.000000	64.985307
902.000000	65.041819
901.000000	65.097914
900.000000	65.164417
899.000000	65.232065
898.000000	65.287015
897.000000	65.340613
896.000000	65.388903
895.000000	65.440836
894.000000	65.495474
893.000000	65.548968
892.000000	65.593719
891.000000	65.642217
890.000000	65.687177
889.000000	65.728390
888.000000	65.779698
887.000000	65.846201
886.000000	65.892097
885.000000	65.956727
884.000000	66.013863
883.000000	66.064651
882.000000	66.133963
881.000000	66.199425
880.000000	66.252711
879.000000	66.298295
878.000000	66.365630
877.000000	66.388006
876.000000	66.374685
875.000000	66.355119
874.000000	66.329517
873.000000	66.254688
872.000000	66.188186
871.000000	66.239806
870.000000	66.364798
869.000000	66.531315
868.000000	66.696479
867.000000	66.852693
866.000000	66.989029
865.000000	67.137021
864.000000	67.287719
863.000000	67.433838
862.000000	67.558206
861.000000	67.702243
860.000000	67.881561
859.000000	67.999372
858.000000	68.126133
857.000000	68.390200
856.000000	68.075100
855.000000	67.913100
854.000000	67.872700
853.000000	68.136700
852.000000	68.219800
851.000000	68.248000
850.000000	68.514400
849.000000	68.255200
848.000000	68.532700
847.000000	68.995300
846.000000	68.934400
845.000000	68.966900
844.000000	68.838400
843.000000	68.804000
842.000000	69.020500
841.000000	69.224500
840.000000	69.146400
839.000000	68.939700
838.000000	69.271800
837.000000	69.220100
836.000000	69.057100
835.000000	69.083600
834.000000	69.437800
833.000000	69.182900
832.000000	69.046400
831.000000	69.242600
830.000000	69.293600
829.000000	69.495500
828.000000	68.990400
827.000000	69.374800
826.000000	69.330300
825.000000	69.021000
824.000000	69.138100
823.000000	69.040600
822.000000	69.069700
821.000000	69.058100
820.000000	69.006200
819.000000	69.102500
818.000000	68.828800
817.000000	69.017700
816.000000	68.841500
815.000000	68.987000
814.000000	68.948100
813.000000	68.650800
812.000000	68.573800
811.000000	68.347200
810.000000	68.439300
809.000000	68.641400
808.000000	68.248200
807.000000	68.354900
806.000000	68.048400
805.000000	68.125000
804.000000	67.786900
803.000000	67.805400
802.000000	67.803200
801.000000	67.879500
800.000000	67.505900
799.000000	67.444300
798.000000	67.258600
797.000000	67.209200
796.000000	67.000400
795.000000	66.910400
794.000000	66.887200
793.000000	66.937000
792.000000	66.814400
791.000000	66.485600
790.000000	66.646600
789.000000	66.457200
788.000000	66.352000
787.000000	66.110900
786.000000	66.057300
785.000000	65.917100
784.000000	65.939500
783.000000	65.854800
782.000000	65.612000
781.000000	65.557600
780.000000	65.485300
779.000000	65.323900
778.000000	65.026500
777.000000	65.089000
776.000000	65.077500
775.000000	64.832600
774.000000	64.868200
773.000000	64.638400
772.000000	64.651200
771.000000	64.467400
770.000000	64.246200
769.000000	64.149900
768.000000	64.048800
767.000000	63.930600
766.000000	63.627300
765.000000	63.387500
764.000000	63.273900
763.000000	63.044400
762.000000	62.897000
761.000000	62.808300
760.000000	62.647400
759.000000	62.408500
758.000000	62.143500
757.000000	62.182300
756.000000	62.161300
755.000000	61.886600
754.000000	61.697800
753.000000	61.610700
752.000000	61.415500
751.000000	61.236700
750.000000	61.045500
749.000000	60.929800
748.000000	60.780700
747.000000	60.476200
746.000000	60.388700
745.000000	60.101700
744.000000	60.009600
743.000000	59.842600
742.000000	59.620200
741.000000	59.491600
740.000000	59.427900
739.000000	59.320000
738.000000	59.165700
737.000000	59.024600
736.000000	58.935300
735.000000	58.825400
734.000000	58.779800
733.000000	58.637000
732.000000	58.587100
731.000000	58.429700
730.000000	58.330300
729.000000	58.173700
728.000000	58.032100
727.000000	57.969700
726.000000	57.811000
725.000000	57.712100
724.000000	57.548000
723.000000	57.519700
722.000000	57.427200
721.000000	57.361900
720.000000	57.254500
719.000000	57.173100
718.000000	57.044100
717.000000	56.920300
716.000000	56.897800
715.000000	56.837900
714.000000	56.778600
713.000000	56.688300
712.000000	56.581900
711.000000	56.561700
710.000000	56.532600
709.000000	56.471700
708.000000	56.384400
707.000000	56.264800
706.000000	56.211100
705.000000	56.119600
704.000000	56.088700
703.000000	56.120300
702.000000	56.068800
701.000000	56.032900
700.000000	56.083000
699.000000	56.055100
698.000000	56.060800
697.000000	56.133300
696.000000	56.140600
695.000000	56.189600
694.000000	56.269500
693.000000	56.307600
692.000000	56.302400
691.000000	56.363900
690.000000	56.405100
689.000000	56.379600
688.000000	56.358900
687.000000	56.340200
686.000000	56.330000
685.000000	56.221500
684.000000	56.103700
683.000000	56.041800
682.000000	55.950100
681.000000	55.831700
680.000000	55.752600
679.000000	55.667600
678.000000	55.552700
677.000000	55.421800
676.000000	55.326900
675.000000	55.231300
674.000000	55.088700
673.000000	54.953500
672.000000	54.772800
671.000000	54.536100
670.000000	54.339700
669.000000	54.118100
668.000000	53.836500
667.000000	53.556800
666.000000	53.265800
665.000000	53.020100
664.000000	52.768700
663.000000	52.449700
662.000000	52.209700
661.000000	52.016300
660.000000	51.842000
659.000000	51.730300
658.000000	51.702000
657.000000	51.712400
656.000000	51.743800
655.000000	51.847000
654.000000	52.043600
653.000000	52.287600
652.000000	52.529900
651.000000	52.804200
650.000000	53.094600
649.000000	53.394200
648.000000	53.738200
647.000000	54.056200
646.000000	54.362400
645.000000	54.738300
644.000000	55.095800
643.000000	55.424500
642.000000	55.795400
641.000000	56.169400
640.000000	56.585600
639.000000	57.014800
638.000000	57.453700
637.000000	57.899700
636.000000	58.401300
635.000000	58.938500
634.000000	59.425200
633.000000	59.948800
632.000000	60.408800
631.000000	60.822400
630.000000	61.293300
629.000000	61.714600
628.000000	62.049900
627.000000	62.366100
626.000000	62.675400
625.000000	62.906700
624.000000	63.085500
623.000000	63.267800
622.000000	63.411300
621.000000	63.574700
620.000000	63.726100
619.000000	63.894500
618.000000	64.058200
617.000000	64.212900
616.000000	64.362100
615.000000	64.536000
614.000000	64.792700
613.000000	65.034300
612.000000	65.244900
611.000000	65.512300
610.000000	65.725100
609.000000	65.933300
608.000000	66.158700
607.000000	66.340000
606.000000	66.473700
605.000000	66.616800
604.000000	66.761000
603.000000	66.840200
602.000000	66.869200
601.000000	66.887800
600.000000	66.971400
599.000000	66.981000
598.000000	66.981700
597.000000	67.020000
596.000000	67.133900
595.000000	67.221600
594.000000	67.273500
593.000000	67.376700
592.000000	67.453300
591.000000	67.545500
590.000000	67.612500
589.000000	67.717200
588.000000	67.780400
587.000000	67.811900
586.000000	67.876900
585.000000	67.863700
584.000000	67.884800
583.000000	67.869900
582.000000	67.840400
581.000000	67.822800
580.000000	67.810500
579.000000	67.777900
578.000000	67.721800
577.000000	67.635300
576.000000	67.553700
575.000000	67.456600
574.000000	67.364400
573.000000	67.226500
572.000000	67.001600
571.000000	66.836200
570.000000	66.622300
569.000000	66.326500
568.000000	66.001500
567.000000	65.661500
566.000000	65.304200
565.000000	64.936100
564.000000	64.499300
563.000000	64.061100
562.000000	63.568300
561.000000	63.058400
560.000000	62.519700
559.000000	61.900900
558.000000	61.303800
557.000000	60.688100
556.000000	60.081700
555.000000	59.348900
554.000000	58.634600
553.000000	57.929800
552.000000	57.214500
551.000000	56.472400
550.000000	55.746700
549.000000	55.039500
548.000000	54.332300
547.000000	53.576500
546.000000	52.875600
545.000000	52.103500
544.000000	51.321600
543.000000	50.553400
542.000000	49.796900
541.000000	49.034500
540.000000	48.324600
539.000000	47.617900
538.000000	46.882600
537.000000	46.228400
536.000000	45.564100
535.000000	44.955100
534.000000	44.362100
533.000000	43.789500
532.000000	43.269700
531.000000	42.752900
530.000000	42.274400
529.000000	41.812200
528.000000	41.358200
527.000000	40.924400
526.000000	40.484800
525.000000	40.125600
524.000000	39.710100
523.000000	39.344600
522.000000	38.980100
521.000000	38.593200
520.000000	38.209200
519.000000	37.808800
518.000000	37.407800
517.000000	37.006900
516.000000	36.637400
515.000000	36.253200
514.000000	35.878500
513.000000	35.471300
512.000000	35.059100
511.000000	34.651700
510.000000	34.215100
509.000000	33.775800
508.000000	33.385200
507.000000	32.994900
506.000000	32.594000
505.000000	32.222200
504.000000	31.845300
503.000000	31.445000
502.000000	31.017000
501.000000	30.680600
500.000000	30.317000
499.000000	29.973400
498.000000	29.704000
497.000000	29.377000
496.000000	29.084100
495.000000	28.774000
494.000000	28.480300
493.000000	28.193600
492.000000	27.927700
491.000000	27.706200
490.000000	27.423300
489.000000	27.168300
488.000000	26.923600
487.000000	26.639200
486.000000	26.421000
485.000000	26.138300
484.000000	25.873000
483.000000	25.578500
482.000000	25.255100
481.000000	24.942800
480.000000	24.629900
479.000000	24.274500
478.000000	23.911200
477.000000	23.581600
476.000000	23.233100
475.000000	22.871700
474.000000	22.506000
473.000000	22.144800
472.000000	21.782600
471.000000	21.426400
470.000000	21.052500
469.000000	20.713600
468.000000	20.414700
467.000000	20.156700
466.000000	19.860400
465.000000	19.615800
464.000000	19.416000
463.000000	19.231000
462.000000	19.080200
461.000000	18.926500
460.000000	18.818900
459.000000	18.706600
458.000000	18.658800
457.000000	18.627200
456.000000	18.574100
455.000000	18.578100
454.000000	18.571600
453.000000	18.569800
452.000000	18.580900
451.000000	18.576600
450.000000	18.554000
449.000000	18.556400
448.000000	18.544200
447.000000	18.526700
446.000000	18.522600
445.000000	18.457300
444.000000	18.407900
443.000000	18.359900
442.000000	18.302300
441.000000	18.187200
440.000000	18.106100
439.000000	17.994800
438.000000	17.859700
437.000000	17.738800
436.000000	17.591400
435.000000	17.423900
434.000000	17.317800
433.000000	17.152900
432.000000	17.021800
431.000000	16.836400
430.000000	16.672200
429.000000	16.506400
428.000000	16.317400
427.000000	16.138500
426.000000	15.935800
425.000000	15.744700
424.000000	15.579200
423.000000	15.358400
422.000000	15.149000
421.000000	14.955800
420.000000	14.743800
419.000000	14.485300
418.000000	14.278800
417.000000	14.027700
416.000000	13.791200
415.000000	13.572700
414.000000	13.318800
413.000000	13.060200
412.000000	12.798400
411.000000	12.525000
410.000000	12.259600
409.000000	11.973800
408.000000	11.683600
407.000000	11.419400
406.000000	11.176100
405.000000	10.890700
404.000000	10.637700
403.000000	10.356100
402.000000	10.083300
401.000000	9.823700
400.000000	9.570900
399.000000	9.316600
398.000000	9.069700
397.000000	8.846700
396.000000	8.617800
395.000000	8.423400
394.000000	8.219200
393.000000	8.034200
392.000000	7.837800
391.000000	7.677800
390.000000	7.512300
389.000000	7.326400
388.000000	7.212400
387.000000	7.090900
386.000000	6.981800
385.000000	6.885900
384.000000	6.787800
383.000000	6.677500
382.000000	6.591100
381.000000	6.505700
380.000000	6.431600
379.000000	6.376500
378.000000	6.327600
377.000000	6.285600
376.000000	6.306100
375.000000	6.283400
374.000000	6.063500
373.000000	5.987500
372.000000	5.897000
371.000000	5.715700
370.000000	5.836800
369.000000	5.870200
368.000000	5.897500
367.000000	5.989600
366.000000	5.995900
365.000000	5.943600
364.000000	5.951200
363.000000	5.925500
362.000000	5.939700
361.000000	5.908100
360.000000	5.883900
359.000000	5.820000
358.000000	5.720300
357.000000	5.623800
356.000000	5.767300
355.000000	5.854300
354.000000	5.754300
353.000000	5.795500
352.000000	5.954100
351.000000	5.902400
350.000000	5.762400
349.000000	5.830300
348.000000	5.810000
347.000000	5.790800
346.000000	5.845900
345.000000	5.803100
344.000000	5.782900
343.000000	5.796900
342.000000	5.798900
341.000000	5.672700
340.000000	5.541000
339.000000	5.739000
338.000000	5.880800
337.000000	5.765200
336.000000	5.682400
335.000000	5.728100
334.000000	5.776500
333.000000	5.662800
332.000000	5.503700
331.000000	5.832900
330.000000	5.998200
329.000000	5.753600
328.000000	5.775800
327.000000	5.901800
326.000000	5.934500
325.000000	6.014100
324.000000	5.921300
323.000000	5.890300
322.000000	6.105100
321.000000	6.221400
320.000000	6.549600
319.000000	6.621200
318.000000	6.625700
317.000000	6.370700
316.000000	5.826900
315.000000	5.633200
314.000000	5.624500
313.000000	5.610600
312.000000	5.601400
311.000000	5.624800
310.000000	5.653700
309.000000	5.639800
308.000000	5.649600
307.000000	5.686500
306.000000	5.716800
305.000000	5.697600
304.000000	5.662400
303.000000	5.656700
302.000000	5.693000
301.000000	5.693100
300.000000	5.668300
299.000000	5.639400
298.000000	5.698400
297.000000	5.722200
296.000000	5.703800
295.000000	5.713800
294.000000	5.753300
293.000000	5.793300
292.000000	5.785300
291.000000	5.775700
290.000000	5.758400
289.000000	5.743800
288.000000	5.755700
287.000000	5.746200
286.000000	5.768800
285.000000	5.792700
284.000000	5.825900
283.000000	5.832300
282.000000	5.804000
281.000000	5.819000
280.000000	5.868200
279.000000	5.869800
278.000000	5.822800
277.000000	5.873300
276.000000	5.862500
275.000000	5.880500
274.000000	5.907800
273.000000	5.900100
272.000000	5.935300
271.000000	5.964200
270.000000	5.984900
269.000000	5.989000
268.000000	6.018100
267.000000	6.001200
266.000000	6.052400
265.000000	6.093700
264.000000	6.100300
263.000000	6.109200
262.000000	6.172600
261.000000	6.177200
260.000000	6.202400
259.000000	6.240100
258.000000	6.264900
257.000000	6.254200
256.000000	6.274200
255.000000	6.272700
254.000000	6.262700
253.000000	6.334400
252.000000	6.339600
251.000000	6.354200
250.000000	6.385900
