PE UV       SUBTECH     SPECTRUM    ASCII       PEDS        4.00        
   -1
CICIMAUCR0204-2.Sample.ASC
24/05/31
15:45:50.00
24/05/31
15:45:50.00
Vinicio Soto Monge
C. cupreomarginata. Sex M. Dorsal
250,000000
1
Lambda 1050
1050L1511233
PerkinElmer UV WinLab 6.3.2.0749 / 2.02.05 Lambda 900 UV/VIS/NIR, Aug  7 2015 09:38:08

0
0
3350/servo 860,8/2
0
0
UV/VIS
1
1
1
DoubleDePol,CommonBeamDepol,RBeamAtt,SBeamAtt,60mm sphere, WB InGaAs Detector
0
0
0
0
Program
Program
3350/servo 860,8/2
3350/0,2 860,8/0,2
3350/0,2 860,8/0,2
0
15.00
 
 
 
0
 
860,8
319,2
860,8
Front
100
on
S:100 R:100
0
0
0
0
 
0
 
 
 
0
 
 
0
0
0
0
0
 
 
 
 
0
0


0
0
#HDR
-1
-1
#GR
nm
%R
1.0
0.0
2500,000000
-1,000000
2251
8
68,788900
5,307800
#DATA
2482.000000	11.159462
2481.000000	11.134722
2480.000000	11.185969
2479.000000	11.200107
2478.000000	11.185034
2477.000000	11.215283
2476.000000	11.194285
2475.000000	11.215179
2474.000000	11.229628
2473.000000	11.215179
2472.000000	11.240127
2471.000000	11.198963
2470.000000	11.256552
2469.000000	11.294909
2468.000000	11.282851
2467.000000	11.332643
2466.000000	11.316739
2465.000000	11.322456
2464.000000	11.369857
2463.000000	11.436073
2462.000000	11.438984
2461.000000	11.479940
2460.000000	11.512685
2459.000000	11.594701
2458.000000	11.677550
2457.000000	11.740647
2456.000000	11.783371
2455.000000	11.879629
2454.000000	11.945741
2453.000000	12.055720
2452.000000	12.126614
2451.000000	12.196780
2450.000000	12.269234
2449.000000	12.385450
2448.000000	12.471313
2447.000000	12.563413
2446.000000	12.648860
2445.000000	12.752290
2444.000000	12.843246
2443.000000	12.921105
2442.000000	13.017051
2441.000000	13.112997
2440.000000	13.181084
2439.000000	13.274327
2438.000000	13.385970
2437.000000	13.471729
2436.000000	13.538049
2435.000000	13.610086
2434.000000	13.673600
2433.000000	13.732851
2432.000000	13.825055
2431.000000	13.891271
2430.000000	13.959463
2429.000000	14.025575
2428.000000	14.072768
2427.000000	14.130149
2426.000000	14.188777
2425.000000	14.239608
2424.000000	14.286490
2423.000000	14.333579
2422.000000	14.393870
2421.000000	14.428278
2420.000000	14.481396
2419.000000	14.527446
2418.000000	14.546469
2417.000000	14.584203
2416.000000	14.628902
2415.000000	14.655201
2414.000000	14.695534
2413.000000	14.754681
2412.000000	14.780461
2411.000000	14.823704
2410.000000	14.854473
2409.000000	14.878798
2408.000000	14.911646
2407.000000	14.949068
2406.000000	14.986594
2405.000000	15.008527
2404.000000	15.046885
2403.000000	15.087841
2402.000000	15.116012
2401.000000	15.137010
2400.000000	15.182332
2399.000000	15.227966
2398.000000	15.266844
2397.000000	15.292311
2396.000000	15.316947
2395.000000	15.357176
2394.000000	15.382540
2393.000000	15.406968
2392.000000	15.436074
2391.000000	15.467363
2390.000000	15.485970
2389.000000	15.512478
2388.000000	15.533372
2387.000000	15.549380
2386.000000	15.561542
2385.000000	15.571313
2384.000000	15.571729
2383.000000	15.572353
2382.000000	15.582332
2381.000000	15.579214
2380.000000	15.576095
2379.000000	15.564141
2378.000000	15.548237
2377.000000	15.537322
2376.000000	15.520066
2375.000000	15.501979
2374.000000	15.485762
2373.000000	15.468091
2372.000000	15.448236
2371.000000	15.421625
2370.000000	15.385451
2369.000000	15.353018
2368.000000	15.334515
2367.000000	15.290752
2366.000000	15.233787
2365.000000	15.187841
2364.000000	15.132124
2363.000000	15.064661
2362.000000	14.999796
2361.000000	14.938569
2360.000000	14.875263
2359.000000	14.814349
2358.000000	14.759879
2357.000000	14.713517
2356.000000	14.666739
2355.000000	14.621833
2354.000000	14.594390
2353.000000	14.572457
2352.000000	14.565908
2351.000000	14.568195
2350.000000	14.571001
2349.000000	14.577758
2348.000000	14.607176
2347.000000	14.640544
2346.000000	14.681292
2345.000000	14.733475
2344.000000	14.771001
2343.000000	14.809983
2342.000000	14.855825
2341.000000	14.893351
2340.000000	14.924016
2339.000000	14.957904
2338.000000	14.978902
2337.000000	14.996989
2336.000000	15.012062
2335.000000	14.991999
2334.000000	14.972977
2333.000000	14.969962
2332.000000	14.943870
2331.000000	14.903746
2330.000000	14.846469
2329.000000	14.787322
2328.000000	14.733787
2327.000000	14.665284
2326.000000	14.584827
2325.000000	14.502394
2324.000000	14.412581
2323.000000	14.315076
2322.000000	14.200211
2321.000000	14.092207
2320.000000	13.979317
2319.000000	13.842623
2318.000000	13.705720
2317.000000	13.590232
2316.000000	13.427030
2315.000000	13.281812
2314.000000	13.165907
2313.000000	13.039088
2312.000000	12.902706
2311.000000	12.793662
2310.000000	12.677238
2309.000000	12.576718
2308.000000	12.513309
2307.000000	12.463932
2306.000000	12.447820
2305.000000	12.443766
2304.000000	12.446884
2303.000000	12.458631
2302.000000	12.501978
2301.000000	12.576718
2300.000000	12.660086
2299.000000	12.736386
2298.000000	12.838672
2297.000000	12.953433
2296.000000	13.062165
2295.000000	13.160710
2294.000000	13.259567
2293.000000	13.325263
2292.000000	13.416635
2291.000000	13.466219
2290.000000	13.486282
2289.000000	13.518194
2288.000000	13.563205
2287.000000	13.560086
2286.000000	13.537529
2285.000000	13.515804
2284.000000	13.495014
2283.000000	13.454889
2282.000000	13.404161
2281.000000	13.342727
2280.000000	13.279733
2279.000000	13.213413
2278.000000	13.130460
2277.000000	13.081084
2276.000000	13.040648
2275.000000	12.972872
2274.000000	12.941687
2273.000000	12.906240
2272.000000	12.873392
2271.000000	12.868818
2270.000000	12.886282
2269.000000	12.911645
2268.000000	12.945741
2267.000000	13.030980
2266.000000	13.111853
2265.000000	13.236594
2264.000000	13.398652
2263.000000	13.558319
2262.000000	13.734930
2261.000000	13.959151
2260.000000	14.176199
2259.000000	14.415180
2258.000000	14.674640
2257.000000	14.952290
2256.000000	15.228486
2255.000000	15.508424
2254.000000	15.775887
2253.000000	16.018715
2252.000000	16.284515
2251.000000	16.534100
2250.000000	16.764973
2249.000000	16.978590
2248.000000	17.199900
2247.000000	17.414349
2246.000000	17.586283
2245.000000	17.740233
2244.000000	17.878175
2243.000000	18.031709
2242.000000	18.176719
2241.000000	18.312894
2240.000000	18.393871
2239.000000	18.513310
2238.000000	18.603747
2237.000000	18.687842
2236.000000	18.772769
2235.000000	18.835867
2234.000000	18.879422
2233.000000	18.941688
2232.000000	18.982957
2231.000000	19.021314
2230.000000	19.063518
2229.000000	19.091896
2228.000000	19.089817
2227.000000	19.097926
2226.000000	19.107489
2225.000000	19.115181
2224.000000	19.077759
2223.000000	19.049381
2222.000000	19.029214
2221.000000	19.018819
2220.000000	19.008944
2219.000000	18.951148
2218.000000	18.930670
2217.000000	18.903955
2216.000000	18.847510
2215.000000	18.811855
2214.000000	18.764453
2213.000000	18.753539
2212.000000	18.712374
2211.000000	18.667988
2210.000000	18.629942
2209.000000	18.609984
2208.000000	18.570483
2207.000000	18.556969
2206.000000	18.509464
2205.000000	18.498341
2204.000000	18.479942
2203.000000	18.471730
2202.000000	18.449173
2201.000000	18.430774
2200.000000	18.409984
2199.000000	18.412894
2198.000000	18.374537
2197.000000	18.369131
2196.000000	18.340233
2195.000000	18.316117
2194.000000	18.321730
2193.000000	18.311647
2192.000000	18.278591
2191.000000	18.276719
2190.000000	18.260399
2189.000000	18.251252
2188.000000	18.238154
2187.000000	18.228591
2186.000000	18.215805
2185.000000	18.187530
2184.000000	18.158008
2183.000000	18.166636
2182.000000	18.148757
2181.000000	18.144703
2180.000000	18.115493
2179.000000	18.113934
2178.000000	18.090857
2177.000000	18.083892
2176.000000	18.083892
2175.000000	18.073809
2174.000000	18.073601
2173.000000	18.066844
2172.000000	18.065077
2171.000000	18.078591
2170.000000	18.077655
2169.000000	18.096366
2168.000000	18.122561
2167.000000	18.126512
2166.000000	18.155722
2165.000000	18.171522
2164.000000	18.196886
2163.000000	18.215285
2162.000000	18.250108
2161.000000	18.291273
2160.000000	18.318092
2159.000000	18.338778
2158.000000	18.377239
2157.000000	18.444183
2156.000000	18.471314
2155.000000	18.534308
2154.000000	18.583684
2153.000000	18.632645
2152.000000	18.664350
2151.000000	18.716013
2150.000000	18.766948
2149.000000	18.813830
2148.000000	18.860296
2147.000000	18.913622
2146.000000	18.971002
2145.000000	19.022458
2144.000000	19.055930
2143.000000	19.095639
2142.000000	19.150420
2141.000000	19.206969
2140.000000	19.245223
2139.000000	19.266741
2138.000000	19.309672
2137.000000	19.339090
2136.000000	19.367364
2135.000000	19.397510
2134.000000	19.422146
2133.000000	19.444287
2132.000000	19.464558
2131.000000	19.492936
2130.000000	19.522458
2129.000000	19.527551
2128.000000	19.534620
2127.000000	19.537323
2126.000000	19.546366
2125.000000	19.543560
2124.000000	19.516221
2123.000000	19.522666
2122.000000	19.523497
2121.000000	19.502188
2120.000000	19.475264
2119.000000	19.462790
2118.000000	19.438362
2117.000000	19.418300
2116.000000	19.395951
2115.000000	19.372562
2114.000000	19.345119
2113.000000	19.310607
2112.000000	19.293352
2111.000000	19.273081
2110.000000	19.232437
2109.000000	19.197406
2108.000000	19.169339
2107.000000	19.131501
2106.000000	19.101980
2105.000000	19.063934
2104.000000	19.026200
2103.000000	18.994079
2102.000000	18.960503
2101.000000	18.930046
2100.000000	18.884204
2099.000000	18.835555
2098.000000	18.804578
2097.000000	18.776616
2096.000000	18.751772
2095.000000	18.718300
2094.000000	18.696158
2093.000000	18.662271
2092.000000	18.625264
2091.000000	18.603123
2090.000000	18.572042
2089.000000	18.533372
2088.000000	18.518715
2087.000000	18.503435
2086.000000	18.459568
2085.000000	18.421730
2084.000000	18.391065
2083.000000	18.359256
2082.000000	18.319443
2081.000000	18.261335
2080.000000	18.222561
2079.000000	18.194079
2078.000000	18.150108
2077.000000	18.104266
2076.000000	18.053850
2075.000000	17.983892
2074.000000	17.934204
2073.000000	17.883996
2072.000000	17.819235
2071.000000	17.759568
2070.000000	17.708216
2069.000000	17.655721
2068.000000	17.592000
2067.000000	17.530877
2066.000000	17.469339
2065.000000	17.410919
2064.000000	17.343247
2063.000000	17.279006
2062.000000	17.241688
2061.000000	17.196470
2060.000000	17.146678
2059.000000	17.105202
2058.000000	17.085555
2057.000000	17.055305
2056.000000	17.026719
2055.000000	17.022977
2054.000000	17.037530
2053.000000	17.039401
2052.000000	17.050004
2051.000000	17.087010
2050.000000	17.127759
2049.000000	17.175784
2048.000000	17.246886
2047.000000	17.322665
2046.000000	17.387010
2045.000000	17.465701
2044.000000	17.555721
2043.000000	17.643559
2042.000000	17.744183
2041.000000	17.822977
2040.000000	17.896262
2039.000000	17.973913
2038.000000	18.067676
2037.000000	18.132853
2036.000000	18.192728
2035.000000	18.266117
2034.000000	18.348029
2033.000000	18.406969
2032.000000	18.451772
2031.000000	18.502603
2030.000000	18.540337
2029.000000	18.599900
2028.000000	18.640649
2027.000000	18.664765
2026.000000	18.694287
2025.000000	18.721522
2024.000000	18.749485
2023.000000	18.762998
2022.000000	18.779214
2021.000000	18.800524
2020.000000	18.808528
2019.000000	18.830150
2018.000000	18.835140
2017.000000	18.844183
2016.000000	18.827239
2015.000000	18.830046
2014.000000	18.816429
2013.000000	18.811127
2012.000000	18.798653
2011.000000	18.779422
2010.000000	18.746574
2009.000000	18.725576
2008.000000	18.683996
2007.000000	18.638986
2006.000000	18.615493
2005.000000	18.573913
2004.000000	18.521938
2003.000000	18.460191
2002.000000	18.405929
2001.000000	18.358112
2000.000000	18.283268
1999.000000	18.212478
1998.000000	18.147925
1997.000000	18.071106
1996.000000	17.989713
1995.000000	17.938778
1994.000000	17.844183
1993.000000	17.755929
1992.000000	17.682852
1991.000000	17.593351
1990.000000	17.521210
1989.000000	17.437322
1988.000000	17.350004
1987.000000	17.245014
1986.000000	17.126096
1985.000000	17.054994
1984.000000	16.959775
1983.000000	16.851147
1982.000000	16.757696
1981.000000	16.675784
1980.000000	16.579422
1979.000000	16.467779
1978.000000	16.371106
1977.000000	16.280565
1976.000000	16.175991
1975.000000	16.092311
1974.000000	15.993247
1973.000000	15.902499
1972.000000	15.826719
1971.000000	15.727550
1970.000000	15.638569
1969.000000	15.546885
1968.000000	15.454266
1967.000000	15.384099
1966.000000	15.280669
1965.000000	15.221105
1964.000000	15.126823
1963.000000	15.024744
1962.000000	14.955825
1961.000000	14.901667
1960.000000	14.806760
1959.000000	14.713933
1958.000000	14.624640
1957.000000	14.578382
1956.000000	14.507800
1955.000000	14.433683
1954.000000	14.341895
1953.000000	14.284203
1952.000000	14.207280
1951.000000	14.133475
1950.000000	14.089712
1949.000000	14.017883
1948.000000	13.953226
1947.000000	13.911958
1946.000000	13.844494
1945.000000	13.802082
1944.000000	13.761126
1943.000000	13.731188
1942.000000	13.718195
1941.000000	13.683059
1940.000000	13.648652
1939.000000	13.641583
1938.000000	13.647716
1937.000000	13.663933
1936.000000	13.671209
1935.000000	13.685450
1934.000000	13.717155
1933.000000	13.702186
1932.000000	13.750731
1931.000000	13.797508
1930.000000	13.871313
1929.000000	13.951978
1928.000000	14.020378
1927.000000	14.104785
1926.000000	14.216531
1925.000000	14.327654
1924.000000	14.412062
1923.000000	14.502186
1922.000000	14.646365
1921.000000	14.801147
1920.000000	14.945430
1919.000000	15.138257
1918.000000	15.282956
1917.000000	15.443767
1916.000000	15.598444
1915.000000	15.750731
1914.000000	15.929422
1913.000000	16.168507
1912.000000	16.400004
1911.000000	16.646989
1910.000000	16.826823
1909.000000	17.029734
1908.000000	17.206657
1907.000000	17.443351
1906.000000	17.687218
1905.000000	17.993247
1904.000000	18.332021
1903.000000	18.621106
1902.000000	18.891584
1901.000000	19.162479
1900.000000	19.474537
1899.000000	19.804786
1898.000000	20.175992
1897.000000	20.482333
1896.000000	20.785036
1895.000000	21.055099
1894.000000	21.344911
1893.000000	21.655618
1892.000000	22.004891
1891.000000	22.422978
1890.000000	22.836284
1889.000000	23.200317
1888.000000	23.580255
1887.000000	23.978904
1886.000000	24.376201
1885.000000	24.803540
1884.000000	25.260921
1883.000000	25.780463
1882.000000	26.291274
1881.000000	26.745017
1880.000000	27.230880
1879.000000	27.635246
1878.000000	28.080048
1877.000000	28.541067
1876.000000	28.962585
1875.000000	29.383375
1874.000000	29.776202
1873.000000	30.164664
1872.000000	30.556140
1871.000000	30.896993
1870.000000	31.222253
1869.000000	31.479321
1868.000000	31.759051
1867.000000	31.942731
1866.000000	32.095018
1865.000000	32.217575
1864.000000	32.332648
1863.000000	32.433895
1862.000000	32.531505
1861.000000	32.657596
1860.000000	32.782856
1859.000000	32.916432
1858.000000	33.011546
1857.000000	33.084519
1856.000000	33.136806
1855.000000	33.154166
1854.000000	33.198033
1853.000000	33.227139
1852.000000	33.227659
1851.000000	33.215808
1850.000000	33.218407
1849.000000	33.250424
1848.000000	33.271110
1847.000000	33.269654
1846.000000	33.265289
1845.000000	33.195434
1844.000000	33.150735
1843.000000	33.103958
1842.000000	33.124332
1841.000000	33.162898
1840.000000	33.144498
1839.000000	33.127866
1838.000000	33.106765
1837.000000	33.082440
1836.000000	33.047409
1835.000000	33.002503
1834.000000	32.947513
1833.000000	32.882440
1832.000000	32.816120
1831.000000	32.766744
1830.000000	32.717679
1829.000000	32.675995
1828.000000	32.627243
1827.000000	32.567263
1826.000000	32.508324
1825.000000	32.431401
1824.000000	32.377658
1823.000000	32.335974
1822.000000	32.318823
1821.000000	32.332648
1820.000000	32.323396
1819.000000	32.295746
1818.000000	32.262378
1817.000000	32.226827
1816.000000	32.201879
1815.000000	32.196681
1814.000000	32.169758
1813.000000	32.156141
1812.000000	32.153438
1811.000000	32.138157
1810.000000	32.110403
1809.000000	32.065080
1808.000000	32.018303
1807.000000	31.981816
1806.000000	31.960403
1805.000000	31.912585
1804.000000	31.855517
1803.000000	31.823708
1802.000000	31.790028
1801.000000	31.747305
1800.000000	31.692523
1799.000000	31.639405
1798.000000	31.587949
1797.000000	31.539924
1796.000000	31.505205
1795.000000	31.463001
1794.000000	31.412897
1793.000000	31.362274
1792.000000	31.323708
1791.000000	31.284831
1790.000000	31.227034
1789.000000	31.173292
1788.000000	31.126203
1787.000000	31.077658
1786.000000	31.020070
1785.000000	30.955517
1784.000000	30.904165
1783.000000	30.848864
1782.000000	30.778074
1781.000000	30.704581
1780.000000	30.650943
1779.000000	30.586702
1778.000000	30.516327
1777.000000	30.452294
1776.000000	30.375579
1775.000000	30.288053
1774.000000	30.199903
1773.000000	30.093978
1772.000000	29.995537
1771.000000	29.906140
1770.000000	29.802294
1769.000000	29.684311
1768.000000	29.586597
1767.000000	29.490755
1766.000000	29.399071
1765.000000	29.330360
1764.000000	29.277346
1763.000000	29.250007
1762.000000	29.227138
1761.000000	29.228593
1760.000000	29.254789
1759.000000	29.285662
1758.000000	29.334518
1757.000000	29.392419
1756.000000	29.451670
1755.000000	29.502086
1754.000000	29.534518
1753.000000	29.565392
1752.000000	29.576826
1751.000000	29.578593
1750.000000	29.571109
1749.000000	29.548032
1748.000000	29.513105
1747.000000	29.451254
1746.000000	29.392626
1745.000000	29.311234
1744.000000	29.217782
1743.000000	29.093146
1742.000000	28.945537
1741.000000	28.779321
1740.000000	28.600942
1739.000000	28.423395
1738.000000	28.238468
1737.000000	28.038364
1736.000000	27.889300
1735.000000	27.776410
1734.000000	27.692626
1733.000000	27.628697
1732.000000	27.623499
1731.000000	27.632127
1730.000000	27.668718
1729.000000	27.746056
1728.000000	27.818094
1727.000000	27.891171
1726.000000	27.977553
1725.000000	28.071005
1724.000000	28.151150
1723.000000	28.202917
1722.000000	28.240339
1721.000000	28.295017
1720.000000	28.349591
1719.000000	28.402190
1718.000000	28.460818
1717.000000	28.550630
1716.000000	28.610610
1715.000000	28.685246
1714.000000	28.772668
1713.000000	28.864872
1712.000000	28.947720
1711.000000	29.012897
1710.000000	29.079217
1709.000000	29.098552
1708.000000	29.138780
1707.000000	29.141483
1706.000000	29.133895
1705.000000	29.119653
1704.000000	29.076930
1703.000000	29.055724
1702.000000	28.978905
1701.000000	28.905308
1700.000000	28.792418
1699.000000	28.664040
1698.000000	28.562377
1697.000000	28.429736
1696.000000	28.341483
1695.000000	28.286805
1694.000000	28.308219
1693.000000	28.320277
1692.000000	28.402502
1691.000000	28.540443
1690.000000	28.676098
1689.000000	28.823915
1688.000000	28.918822
1687.000000	28.991275
1686.000000	29.063728
1685.000000	29.107179
1684.000000	29.197720
1683.000000	29.310610
1682.000000	29.523084
1681.000000	29.808323
1680.000000	30.186702
1679.000000	30.618198
1678.000000	31.068303
1677.000000	31.529010
1676.000000	31.955101
1675.000000	32.328802
1674.000000	32.684623
1673.000000	32.989301
1672.000000	33.257908
1671.000000	33.502399
1670.000000	33.703230
1669.000000	33.893251
1668.000000	34.069239
1667.000000	34.203023
1666.000000	34.328075
1665.000000	34.441796
1664.000000	34.551775
1663.000000	34.648761
1662.000000	34.734728
1661.000000	34.806349
1660.000000	34.855206
1659.000000	34.937742
1658.000000	34.987638
1657.000000	35.041692
1656.000000	35.085351
1655.000000	35.095538
1654.000000	35.120694
1653.000000	35.126412
1652.000000	35.150216
1651.000000	35.147202
1650.000000	35.131817
1649.000000	35.122358
1648.000000	35.128387
1647.000000	35.097825
1646.000000	35.057285
1645.000000	35.022046
1644.000000	34.992212
1643.000000	34.976100
1642.000000	34.948761
1641.000000	34.908948
1640.000000	34.868199
1639.000000	34.828906
1638.000000	34.788470
1637.000000	34.757285
1636.000000	34.704270
1635.000000	34.666224
1634.000000	34.606037
1633.000000	34.570798
1632.000000	34.511443
1631.000000	34.468719
1630.000000	34.401775
1629.000000	34.352399
1628.000000	34.280362
1627.000000	34.209468
1626.000000	34.155829
1625.000000	34.082233
1624.000000	34.026931
1623.000000	33.982648
1622.000000	33.918927
1621.000000	33.857077
1620.000000	33.785455
1619.000000	33.734831
1618.000000	33.676515
1617.000000	33.626723
1616.000000	33.576411
1615.000000	33.510403
1614.000000	33.454166
1613.000000	33.400943
1612.000000	33.333064
1611.000000	33.303854
1610.000000	33.219966
1609.000000	33.185559
1608.000000	33.126515
1607.000000	33.070174
1606.000000	33.001879
1605.000000	32.939509
1604.000000	32.870278
1603.000000	32.809883
1602.000000	32.752191
1601.000000	32.686494
1600.000000	32.612794
1599.000000	32.560195
1598.000000	32.481920
1597.000000	32.434415
1596.000000	32.377970
1595.000000	32.303438
1594.000000	32.251567
1593.000000	32.202606
1592.000000	32.151463
1591.000000	32.089613
1590.000000	32.022253
1589.000000	31.980881
1588.000000	31.911130
1587.000000	31.873708
1586.000000	31.832128
1585.000000	31.779425
1584.000000	31.748552
1583.000000	31.700007
1582.000000	31.657284
1581.000000	31.622980
1580.000000	31.566328
1579.000000	31.526099
1578.000000	31.498864
1577.000000	31.473084
1576.000000	31.448448
1575.000000	31.421005
1574.000000	31.408531
1573.000000	31.402086
1572.000000	31.393978
1571.000000	31.383375
1570.000000	31.376411
1569.000000	31.370901
1568.000000	31.361754
1567.000000	31.364560
1566.000000	31.356037
1565.000000	31.366847
1564.000000	31.369238
1563.000000	31.356244
1562.000000	31.347409
1561.000000	31.343355
1560.000000	31.341276
1559.000000	31.336494
1558.000000	31.324124
1557.000000	31.316535
1556.000000	31.302918
1555.000000	31.279633
1554.000000	31.249488
1553.000000	31.217991
1552.000000	31.185558
1551.000000	31.155101
1550.000000	31.129321
1549.000000	31.101047
1548.000000	31.065392
1547.000000	31.028698
1546.000000	30.982544
1545.000000	30.945226
1544.000000	30.916431
1543.000000	30.882648
1542.000000	30.863833
1541.000000	30.841172
1540.000000	30.822668
1539.000000	30.813729
1538.000000	30.790028
1537.000000	30.775995
1536.000000	30.758947
1535.000000	30.737429
1534.000000	30.695953
1533.000000	30.667055
1532.000000	30.647824
1531.000000	30.614768
1530.000000	30.583583
1529.000000	30.550423
1528.000000	30.513625
1527.000000	30.471837
1526.000000	30.429633
1525.000000	30.393770
1524.000000	30.360506
1523.000000	30.325995
1522.000000	30.274643
1521.000000	30.226826
1520.000000	30.198136
1519.000000	30.159467
1518.000000	30.108531
1517.000000	30.066743
1516.000000	30.020589
1515.000000	29.971213
1514.000000	29.933271
1513.000000	29.882336
1512.000000	29.825891
1511.000000	29.770485
1510.000000	29.720901
1509.000000	29.675163
1508.000000	29.615703
1507.000000	29.554685
1506.000000	29.497616
1505.000000	29.443354
1504.000000	29.397304
1503.000000	29.352502
1502.000000	29.303645
1501.000000	29.256036
1500.000000	29.219238
1499.000000	29.182335
1498.000000	29.134830
1497.000000	29.097304
1496.000000	29.076410
1495.000000	29.037221
1494.000000	29.006556
1493.000000	28.985454
1492.000000	28.954477
1491.000000	28.936597
1490.000000	28.919965
1489.000000	28.905828
1488.000000	28.891795
1487.000000	28.883687
1486.000000	28.868302
1485.000000	28.850734
1484.000000	28.846472
1483.000000	28.828073
1482.000000	28.831919
1481.000000	28.835246
1480.000000	28.821732
1479.000000	28.827969
1478.000000	28.843042
1477.000000	28.844601
1476.000000	28.854061
1475.000000	28.864456
1474.000000	28.879113
1473.000000	28.886909
1472.000000	28.912793
1471.000000	28.956452
1470.000000	28.966847
1469.000000	28.973500
1468.000000	28.997096
1467.000000	29.028593
1466.000000	29.052917
1465.000000	29.075059
1464.000000	29.102502
1463.000000	29.150319
1462.000000	29.188053
1461.000000	29.229633
1460.000000	29.278073
1459.000000	29.329737
1458.000000	29.382855
1457.000000	29.447408
1456.000000	29.510298
1455.000000	29.580776
1454.000000	29.666223
1453.000000	29.729529
1452.000000	29.793250
1451.000000	29.899799
1450.000000	29.988365
1449.000000	30.062065
1448.000000	30.125267
1447.000000	30.222772
1446.000000	30.327658
1445.000000	30.411442
1444.000000	30.512689
1443.000000	30.590340
1442.000000	30.686702
1441.000000	30.798656
1440.000000	30.874747
1439.000000	30.985038
1438.000000	31.087637
1437.000000	31.198032
1436.000000	31.289716
1435.000000	31.387014
1434.000000	31.505517
1433.000000	31.629841
1432.000000	31.757492
1431.000000	31.859467
1430.000000	31.979114
1429.000000	32.114145
1428.000000	32.257388
1427.000000	32.410403
1426.000000	32.579426
1425.000000	32.740340
1424.000000	32.925372
1423.000000	33.098760
1422.000000	33.278074
1421.000000	33.473293
1420.000000	33.690445
1419.000000	33.936079
1418.000000	34.147201
1417.000000	34.331505
1416.000000	34.524852
1415.000000	34.774125
1414.000000	35.050216
1413.000000	35.293771
1412.000000	35.524229
1411.000000	35.764250
1410.000000	36.041589
1409.000000	36.383377
1408.000000	36.707597
1407.000000	37.041069
1406.000000	37.381610
1405.000000	37.727660
1404.000000	38.088159
1403.000000	38.396475
1402.000000	38.748762
1401.000000	39.107598
1400.000000	39.513523
1399.000000	39.872463
1398.000000	40.099282
1397.000000	40.331298
1396.000000	40.651257
1395.000000	41.011236
1394.000000	41.279947
1393.000000	41.478804
1392.000000	41.707806
1391.000000	42.003336
1390.000000	42.272983
1389.000000	42.512484
1388.000000	42.887224
1387.000000	43.261964
1386.000000	43.620592
1385.000000	44.005832
1384.000000	44.468098
1383.000000	44.906248
1382.000000	45.364044
1381.000000	45.735354
1380.000000	46.066539
1379.000000	46.239200
1378.000000	46.446165
1377.000000	46.557184
1376.000000	46.726102
1375.000000	46.904585
1374.000000	47.080157
1373.000000	47.316019
1372.000000	47.550011
1371.000000	47.840448
1370.000000	48.104065
1369.000000	48.381612
1368.000000	48.631196
1367.000000	48.861134
1366.000000	49.071113
1365.000000	49.210095
1364.000000	49.406353
1363.000000	49.551675
1362.000000	49.734003
1361.000000	49.863629
1360.000000	49.961134
1359.000000	49.975480
1358.000000	50.095542
1357.000000	50.178702
1356.000000	50.298245
1355.000000	50.518931
1354.000000	50.794918
1353.000000	51.099596
1352.000000	51.374025
1351.000000	51.778910
1350.000000	52.138370
1349.000000	52.477559
1348.000000	52.816333
1347.000000	53.117164
1346.000000	53.413006
1345.000000	53.641281
1344.000000	53.945023
1343.000000	54.206770
1342.000000	54.446271
1341.000000	54.698142
1340.000000	54.924129
1339.000000	55.168100
1338.000000	55.410928
1337.000000	55.621115
1336.000000	55.841281
1335.000000	56.066022
1334.000000	56.279119
1333.000000	56.473298
1332.000000	56.681406
1331.000000	56.875169
1330.000000	57.057290
1329.000000	57.231926
1328.000000	57.406978
1327.000000	57.562072
1326.000000	57.733070
1325.000000	57.894608
1324.000000	58.029536
1323.000000	58.163215
1322.000000	58.299494
1321.000000	58.428704
1320.000000	58.543985
1319.000000	58.667166
1318.000000	58.783070
1317.000000	58.871636
1316.000000	59.009577
1315.000000	59.087020
1314.000000	59.186085
1313.000000	59.266854
1312.000000	59.357914
1311.000000	59.436293
1310.000000	59.509266
1309.000000	59.581511
1308.000000	59.644089
1307.000000	59.719973
1306.000000	59.764151
1305.000000	59.800118
1304.000000	59.854380
1303.000000	59.880575
1302.000000	59.919349
1301.000000	59.942218
1300.000000	59.955627
1299.000000	59.994609
1298.000000	60.006043
1297.000000	60.004588
1296.000000	60.014879
1295.000000	60.022779
1294.000000	60.036501
1293.000000	60.025794
1292.000000	60.016958
1291.000000	60.014463
1290.000000	59.994401
1289.000000	59.974442
1288.000000	59.955835
1287.000000	59.930056
1286.000000	59.895544
1285.000000	59.854172
1284.000000	59.814047
1283.000000	59.782343
1282.000000	59.723819
1281.000000	59.682031
1280.000000	59.630679
1279.000000	59.584006
1278.000000	59.525794
1277.000000	59.479640
1276.000000	59.447831
1275.000000	59.395752
1274.000000	59.361033
1273.000000	59.332031
1272.000000	59.300846
1271.000000	59.279640
1270.000000	59.235253
1269.000000	59.196792
1268.000000	59.168205
1267.000000	59.132654
1266.000000	59.107186
1265.000000	59.086189
1264.000000	59.048974
1263.000000	59.007706
1262.000000	58.965814
1261.000000	58.936812
1260.000000	58.915606
1259.000000	58.881511
1258.000000	58.829952
1257.000000	58.785045
1256.000000	58.749910
1255.000000	58.697831
1254.000000	58.654276
1253.000000	58.603548
1252.000000	58.541802
1251.000000	58.480263
1250.000000	58.444816
1249.000000	58.376937
1248.000000	58.312592
1247.000000	58.241074
1246.000000	58.169764
1245.000000	58.088579
1244.000000	57.992113
1243.000000	57.911240
1242.000000	57.816750
1241.000000	57.715398
1240.000000	57.617165
1239.000000	57.517373
1238.000000	57.430055
1237.000000	57.332758
1236.000000	57.220076
1235.000000	57.122155
1234.000000	57.018517
1233.000000	56.904795
1232.000000	56.791905
1231.000000	56.674026
1230.000000	56.549909
1229.000000	56.429431
1228.000000	56.309473
1227.000000	56.190034
1226.000000	56.074753
1225.000000	55.956250
1224.000000	55.835252
1223.000000	55.707394
1222.000000	55.571531
1221.000000	55.441177
1220.000000	55.317165
1219.000000	55.190865
1218.000000	55.077872
1217.000000	54.957082
1216.000000	54.835148
1215.000000	54.737227
1214.000000	54.645127
1213.000000	54.544815
1212.000000	54.452300
1211.000000	54.349181
1210.000000	54.254067
1209.000000	54.177456
1208.000000	54.090034
1207.000000	54.010720
1206.000000	53.950117
1205.000000	53.903547
1204.000000	53.844088
1203.000000	53.804275
1202.000000	53.757913
1201.000000	53.712175
1200.000000	53.691489
1199.000000	53.653235
1198.000000	53.582653
1197.000000	53.500844
1196.000000	53.408121
1195.000000	53.267164
1194.000000	53.084940
1193.000000	52.862071
1192.000000	52.590969
1191.000000	52.297829
1190.000000	51.981717
1189.000000	51.666852
1188.000000	51.389409
1187.000000	51.179950
1186.000000	51.060095
1185.000000	51.018411
1184.000000	51.065189
1183.000000	51.211862
1182.000000	51.429638
1181.000000	51.721218
1180.000000	52.058120
1179.000000	52.411031
1178.000000	52.761967
1177.000000	53.064773
1176.000000	53.334940
1175.000000	53.605938
1174.000000	53.827663
1173.000000	54.035772
1172.000000	54.257809
1171.000000	54.482757
1170.000000	54.720179
1169.000000	54.961759
1168.000000	55.214982
1167.000000	55.461032
1166.000000	55.700325
1165.000000	55.958329
1164.000000	56.240242
1163.000000	56.509473
1162.000000	56.789514
1161.000000	57.058849
1160.000000	57.309889
1159.000000	57.578392
1158.000000	57.848766
1157.000000	58.098558
1156.000000	58.333382
1155.000000	58.535877
1154.000000	58.715918
1153.000000	58.868933
1152.000000	58.984317
1151.000000	59.079120
1150.000000	59.156771
1149.000000	59.207810
1148.000000	59.274442
1147.000000	59.346584
1146.000000	59.452405
1145.000000	59.579224
1144.000000	59.763424
1143.000000	59.966958
1142.000000	60.214775
1141.000000	60.461449
1140.000000	60.751989
1139.000000	61.024547
1138.000000	61.323923
1137.000000	61.644609
1136.000000	61.956252
1135.000000	62.306875
1134.000000	62.641491
1133.000000	62.962281
1132.000000	63.205212
1131.000000	63.496793
1130.000000	63.738165
1129.000000	63.936709
1128.000000	64.122468
1127.000000	64.300639
1126.000000	64.428913
1125.000000	64.542219
1124.000000	64.661970
1123.000000	64.752510
1122.000000	64.807915
1121.000000	64.878082
1120.000000	64.923196
1119.000000	64.966647
1118.000000	65.006668
1117.000000	65.037437
1116.000000	65.061034
1115.000000	65.065400
1114.000000	65.072676
1113.000000	65.083383
1112.000000	65.101263
1111.000000	65.105629
1110.000000	65.121117
1109.000000	65.117375
1108.000000	65.110202
1107.000000	65.135566
1106.000000	65.137645
1105.000000	65.163113
1104.000000	65.154277
1103.000000	65.152822
1102.000000	65.136086
1101.000000	65.135774
1100.000000	65.130369
1099.000000	65.137437
1098.000000	65.137645
1097.000000	65.097313
1096.000000	65.112385
1095.000000	65.097001
1094.000000	65.082344
1093.000000	65.049600
1092.000000	65.033903
1091.000000	65.000223
1090.000000	64.980681
1089.000000	64.977146
1088.000000	64.927770
1087.000000	64.903134
1086.000000	64.855733
1085.000000	64.826107
1084.000000	64.800223
1083.000000	64.760618
1082.000000	64.727874
1081.000000	64.675483
1080.000000	64.640556
1079.000000	64.609683
1078.000000	64.584942
1077.000000	64.544922
1076.000000	64.521533
1075.000000	64.492531
1074.000000	64.442635
1073.000000	64.412801
1072.000000	64.363113
1071.000000	64.351055
1070.000000	64.299911
1069.000000	64.289516
1068.000000	64.243362
1067.000000	64.217895
1066.000000	64.190971
1065.000000	64.159890
1064.000000	64.125691
1063.000000	64.086086
1062.000000	64.058955
1061.000000	64.028809
1060.000000	64.010930
1059.000000	63.989724
1058.000000	63.959578
1057.000000	63.929225
1056.000000	63.903861
1055.000000	63.890036
1054.000000	63.874859
1053.000000	63.851470
1052.000000	63.855732
1051.000000	63.807707
1050.000000	63.805420
1049.000000	63.791179
1048.000000	63.777666
1047.000000	63.775483
1046.000000	63.776730
1045.000000	63.754901
1044.000000	63.778393
1043.000000	63.771637
1042.000000	63.761242
1041.000000	63.762281
1040.000000	63.780057
1039.000000	63.783383
1038.000000	63.789620
1037.000000	63.786917
1036.000000	63.787749
1035.000000	63.786709
1034.000000	63.799911
1033.000000	63.785046
1032.000000	63.791699
1031.000000	63.783799
1030.000000	63.783279
1029.000000	63.783695
1028.000000	63.780265
1027.000000	63.781928
1026.000000	63.767894
1025.000000	63.766959
1024.000000	63.767894
1023.000000	63.767998
1022.000000	63.769454
1021.000000	63.771429
1020.000000	63.757499
1019.000000	63.760202
1018.000000	63.773820
1017.000000	63.787853
1016.000000	63.793882
1015.000000	63.800015
1014.000000	63.802302
1013.000000	63.830057
1012.000000	63.873716
1011.000000	63.901470
1010.000000	63.915815
1009.000000	63.954901
1008.000000	64.003549
1007.000000	64.053549
1006.000000	64.095441
1005.000000	64.137645
1004.000000	64.163529
1003.000000	64.211554
1002.000000	64.261658
1001.000000	64.313529
1000.000000	64.354173
999.000000	64.396689
998.000000	64.435358
997.000000	64.480057
996.000000	64.549807
995.000000	64.594714
994.000000	64.646065
993.000000	64.699392
992.000000	64.764256
991.000000	64.819350
990.000000	64.867063
989.000000	64.940140
988.000000	65.004173
987.000000	65.072780
986.000000	65.144506
985.000000	65.224548
984.000000	65.297417
983.000000	65.369558
982.000000	65.451990
981.000000	65.532136
980.000000	65.612697
979.000000	65.704277
978.000000	65.784839
977.000000	65.888373
976.000000	65.965192
975.000000	66.039932
974.000000	66.143363
973.000000	66.220598
972.000000	66.305629
971.000000	66.405733
970.000000	66.509787
969.000000	66.603758
968.000000	66.693987
967.000000	66.788581
966.000000	66.898872
965.000000	66.993259
964.000000	67.082968
963.000000	67.193363
962.000000	67.299184
961.000000	67.414569
960.000000	67.529954
959.000000	67.642843
958.000000	67.747313
957.000000	67.839101
956.000000	67.955629
955.000000	68.066128
954.000000	68.153966
953.000000	68.239621
952.000000	68.325900
951.000000	68.419143
950.000000	68.511763
949.000000	68.603966
948.000000	68.689517
947.000000	68.763114
946.000000	68.820494
945.000000	68.886919
944.000000	68.975484
943.000000	69.047210
942.000000	69.109684
941.000000	69.169871
940.000000	69.229746
939.000000	69.290349
938.000000	69.348769
937.000000	69.394299
936.000000	69.451056
935.000000	69.503655
934.000000	69.550640
933.000000	69.614881
932.000000	69.661867
931.000000	69.721534
930.000000	69.754382
929.000000	69.789414
928.000000	69.833488
927.000000	69.886399
926.000000	69.915297
925.000000	69.935567
924.000000	69.974861
923.000000	70.011763
922.000000	70.062075
921.000000	70.097730
920.000000	70.132865
919.000000	70.162698
918.000000	70.180682
917.000000	70.204902
916.000000	70.214050
915.000000	70.243676
914.000000	70.264362
913.000000	70.282761
912.000000	70.295131
911.000000	70.310100
910.000000	70.320911
909.000000	70.330370
908.000000	70.344923
907.000000	70.381098
906.000000	70.403447
905.000000	70.423301
904.000000	70.447730
903.000000	70.470183
902.000000	70.494715
901.000000	70.512387
900.000000	70.529538
899.000000	70.562906
898.000000	70.590141
897.000000	70.602823
896.000000	70.595963
895.000000	70.605110
894.000000	70.614674
893.000000	70.608956
892.000000	70.609996
891.000000	70.594819
890.000000	70.583696
889.000000	70.547314
888.000000	70.510100
887.000000	70.476732
886.000000	70.435256
885.000000	70.360723
884.000000	70.298769
883.000000	70.226836
882.000000	70.160412
881.000000	70.052927
880.000000	69.972782
879.000000	69.875900
878.000000	69.766025
877.000000	69.611763
876.000000	69.434736
875.000000	69.245235
874.000000	69.093260
873.000000	68.864050
872.000000	68.609060
871.000000	68.449081
870.000000	68.414153
869.000000	68.411970
868.000000	68.436607
867.000000	68.448665
866.000000	68.437750
865.000000	68.459684
864.000000	68.451679
863.000000	68.459995
862.000000	68.452199
861.000000	68.468103
860.000000	68.475172
859.000000	68.463738
858.000000	68.469767
857.000000	68.038100
856.000000	68.788900
855.000000	68.582300
854.000000	68.324600
853.000000	68.620300
852.000000	68.236500
851.000000	68.365500
850.000000	68.482200
849.000000	68.027800
848.000000	68.391100
847.000000	68.314100
846.000000	68.019300
845.000000	68.448100
844.000000	68.054000
843.000000	67.706200
842.000000	67.885200
841.000000	67.850400
840.000000	67.660000
839.000000	67.465800
838.000000	67.392200
837.000000	67.369400
836.000000	67.256300
835.000000	67.428300
834.000000	67.248000
833.000000	66.861300
832.000000	66.873600
831.000000	66.850400
830.000000	66.925600
829.000000	66.723100
828.000000	66.697500
827.000000	66.512700
826.000000	66.418100
825.000000	66.364500
824.000000	66.193700
823.000000	65.919400
822.000000	65.915800
821.000000	65.730200
820.000000	65.811700
819.000000	65.748500
818.000000	65.696300
817.000000	65.400300
816.000000	65.244900
815.000000	65.155100
814.000000	65.029800
813.000000	65.027300
812.000000	65.116400
811.000000	64.972500
810.000000	64.689800
809.000000	64.737600
808.000000	64.762100
807.000000	64.415000
806.000000	64.322300
805.000000	64.294500
804.000000	64.253100
803.000000	64.159700
802.000000	63.878300
801.000000	64.015300
800.000000	63.819100
799.000000	63.621800
798.000000	63.756300
797.000000	63.470100
796.000000	63.484700
795.000000	63.418800
794.000000	63.209100
793.000000	63.081400
792.000000	62.982400
791.000000	63.059600
790.000000	62.955900
789.000000	62.831300
788.000000	62.830800
787.000000	62.596800
786.000000	62.441600
785.000000	62.408700
784.000000	62.290100
783.000000	62.243200
782.000000	62.050100
781.000000	62.079300
780.000000	61.695200
779.000000	61.801400
778.000000	61.626700
777.000000	61.519600
776.000000	61.448900
775.000000	61.316200
774.000000	61.308300
773.000000	61.041100
772.000000	61.007100
771.000000	60.899300
770.000000	60.724200
769.000000	60.713900
768.000000	60.556500
767.000000	60.406000
766.000000	60.234600
765.000000	60.146800
764.000000	60.175600
763.000000	59.854700
762.000000	59.825400
761.000000	59.510000
760.000000	59.419300
759.000000	59.199600
758.000000	59.217600
757.000000	59.072000
756.000000	58.919700
755.000000	58.729800
754.000000	58.605200
753.000000	58.492000
752.000000	58.374800
751.000000	58.197200
750.000000	58.051200
749.000000	57.987900
748.000000	57.780500
747.000000	57.733200
746.000000	57.602500
745.000000	57.476700
744.000000	57.352700
743.000000	57.169000
742.000000	57.098100
741.000000	57.091700
740.000000	56.949400
739.000000	56.938500
738.000000	56.837500
737.000000	56.769200
736.000000	56.792700
735.000000	56.658600
734.000000	56.603200
733.000000	56.490200
732.000000	56.459200
731.000000	56.398600
730.000000	56.303800
729.000000	56.222400
728.000000	56.130300
727.000000	55.931600
726.000000	55.728700
725.000000	55.673100
724.000000	55.526700
723.000000	55.405800
722.000000	55.310000
721.000000	55.123600
720.000000	54.903800
719.000000	54.803000
718.000000	54.730500
717.000000	54.570300
716.000000	54.409400
715.000000	54.298300
714.000000	54.182200
713.000000	53.990100
712.000000	53.866500
711.000000	53.749900
710.000000	53.569900
709.000000	53.423200
708.000000	53.295200
707.000000	53.060100
706.000000	52.900600
705.000000	52.742200
704.000000	52.506800
703.000000	52.302600
702.000000	52.080500
701.000000	51.908800
700.000000	51.731100
699.000000	51.483500
698.000000	51.280600
697.000000	51.075500
696.000000	50.839700
695.000000	50.634200
694.000000	50.473400
693.000000	50.279300
692.000000	50.085800
691.000000	49.946000
690.000000	49.772400
689.000000	49.580700
688.000000	49.344300
687.000000	49.181900
686.000000	49.020000
685.000000	48.827400
684.000000	48.676400
683.000000	48.477100
682.000000	48.308500
681.000000	48.115100
680.000000	47.927000
679.000000	47.791700
678.000000	47.648500
677.000000	47.546100
676.000000	47.409500
675.000000	47.319500
674.000000	47.266700
673.000000	47.195500
672.000000	47.169200
671.000000	47.168000
670.000000	47.130700
669.000000	47.122200
668.000000	47.108500
667.000000	47.136500
666.000000	47.153500
665.000000	47.117300
664.000000	47.104000
663.000000	47.136100
662.000000	47.139100
661.000000	47.153500
660.000000	47.166000
659.000000	47.145300
658.000000	47.129600
657.000000	47.131400
656.000000	47.134700
655.000000	47.133800
654.000000	47.108900
653.000000	47.092300
652.000000	47.074600
651.000000	47.062000
650.000000	47.027000
649.000000	46.981000
648.000000	46.922200
647.000000	46.817900
646.000000	46.704800
645.000000	46.579100
644.000000	46.372400
643.000000	46.145800
642.000000	45.930000
641.000000	45.670500
640.000000	45.406700
639.000000	45.089100
638.000000	44.778900
637.000000	44.536700
636.000000	44.301500
635.000000	44.056900
634.000000	43.866400
633.000000	43.735600
632.000000	43.642400
631.000000	43.592900
630.000000	43.604600
629.000000	43.674600
628.000000	43.776200
627.000000	43.970200
626.000000	44.250300
625.000000	44.569900
624.000000	44.935900
623.000000	45.343400
622.000000	45.774300
621.000000	46.265300
620.000000	46.787100
619.000000	47.334800
618.000000	47.897100
617.000000	48.471800
616.000000	49.044000
615.000000	49.618400
614.000000	50.247100
613.000000	50.873100
612.000000	51.516700
611.000000	52.165500
610.000000	52.801700
609.000000	53.408500
608.000000	54.009200
607.000000	54.568100
606.000000	55.103800
605.000000	55.594900
604.000000	56.069100
603.000000	56.508600
602.000000	56.905700
601.000000	57.290500
600.000000	57.596500
599.000000	57.891300
598.000000	58.215900
597.000000	58.472500
596.000000	58.670700
595.000000	58.881100
594.000000	59.109900
593.000000	59.313000
592.000000	59.495200
591.000000	59.636500
590.000000	59.810800
589.000000	60.001100
588.000000	60.141000
587.000000	60.308200
586.000000	60.433600
585.000000	60.588700
584.000000	60.765600
583.000000	60.880900
582.000000	61.011900
581.000000	61.192400
580.000000	61.391900
579.000000	61.573500
578.000000	61.714000
577.000000	61.919900
576.000000	62.088800
575.000000	62.268900
574.000000	62.455800
573.000000	62.585000
572.000000	62.692600
571.000000	62.823800
570.000000	62.895100
569.000000	62.940900
568.000000	63.001500
567.000000	63.027300
566.000000	63.051800
565.000000	63.007700
564.000000	63.019400
563.000000	63.001700
562.000000	62.975100
561.000000	62.985800
560.000000	62.952000
559.000000	62.956200
558.000000	62.895900
557.000000	62.900700
556.000000	62.877400
555.000000	62.829200
554.000000	62.744600
553.000000	62.633000
552.000000	62.475200
551.000000	62.285500
550.000000	62.100500
549.000000	61.811200
548.000000	61.504700
547.000000	61.140600
546.000000	60.769200
545.000000	60.372800
544.000000	59.922200
543.000000	59.422900
542.000000	58.905400
541.000000	58.354900
540.000000	57.705500
539.000000	57.099000
538.000000	56.420200
537.000000	55.685500
536.000000	54.918900
535.000000	54.109200
534.000000	53.247600
533.000000	52.409700
532.000000	51.531100
531.000000	50.563800
530.000000	49.626800
529.000000	48.700100
528.000000	47.722700
527.000000	46.795700
526.000000	45.874900
525.000000	44.952400
524.000000	44.018700
523.000000	43.110700
522.000000	42.220600
521.000000	41.358600
520.000000	40.568400
519.000000	39.791400
518.000000	39.071700
517.000000	38.397300
516.000000	37.731900
515.000000	37.094900
514.000000	36.513000
513.000000	35.954700
512.000000	35.410500
511.000000	34.878800
510.000000	34.407400
509.000000	33.916100
508.000000	33.452400
507.000000	32.995400
506.000000	32.503900
505.000000	32.047200
504.000000	31.597200
503.000000	31.119800
502.000000	30.648500
501.000000	30.134600
500.000000	29.678800
499.000000	29.214900
498.000000	28.729900
497.000000	28.219500
496.000000	27.741900
495.000000	27.308800
494.000000	26.857400
493.000000	26.413700
492.000000	25.983900
491.000000	25.559800
490.000000	25.194900
489.000000	24.825200
488.000000	24.448200
487.000000	24.146000
486.000000	23.854400
485.000000	23.544500
484.000000	23.294700
483.000000	23.048000
482.000000	22.788200
481.000000	22.567600
480.000000	22.392900
479.000000	22.200800
478.000000	22.017800
477.000000	21.839000
476.000000	21.654600
475.000000	21.508900
474.000000	21.355500
473.000000	21.250400
472.000000	21.098300
471.000000	20.941800
470.000000	20.803000
469.000000	20.647100
468.000000	20.545600
467.000000	20.397300
466.000000	20.268300
465.000000	20.115500
464.000000	19.965100
463.000000	19.816400
462.000000	19.663200
461.000000	19.513400
460.000000	19.380100
459.000000	19.238000
458.000000	19.049000
457.000000	18.884100
456.000000	18.732800
455.000000	18.593000
454.000000	18.402500
453.000000	18.238300
452.000000	18.054400
451.000000	17.922900
450.000000	17.714600
449.000000	17.506400
448.000000	17.322900
447.000000	17.106100
446.000000	16.912600
445.000000	16.721600
444.000000	16.475600
443.000000	16.251500
442.000000	16.021300
441.000000	15.799000
440.000000	15.545300
439.000000	15.291500
438.000000	15.034300
437.000000	14.788100
436.000000	14.530400
435.000000	14.273400
434.000000	14.029500
433.000000	13.771500
432.000000	13.502800
431.000000	13.240000
430.000000	12.970900
429.000000	12.701900
428.000000	12.434800
427.000000	12.165400
426.000000	11.863600
425.000000	11.637800
424.000000	11.384900
423.000000	11.116400
422.000000	10.842100
421.000000	10.568800
420.000000	10.315400
419.000000	10.066700
418.000000	9.841500
417.000000	9.596700
416.000000	9.384100
415.000000	9.163400
414.000000	8.972600
413.000000	8.742600
412.000000	8.552500
411.000000	8.372500
410.000000	8.192100
409.000000	8.028300
408.000000	7.856000
407.000000	7.702700
406.000000	7.574600
405.000000	7.444500
404.000000	7.319100
403.000000	7.198400
402.000000	7.089700
401.000000	7.013200
400.000000	6.906200
399.000000	6.819500
398.000000	6.739500
397.000000	6.674500
396.000000	6.598000
395.000000	6.519600
394.000000	6.453900
393.000000	6.408200
392.000000	6.351500
391.000000	6.295200
390.000000	6.253400
389.000000	6.209100
388.000000	6.177300
387.000000	6.146400
386.000000	6.110900
385.000000	6.056300
384.000000	6.029100
383.000000	6.004600
382.000000	5.966800
381.000000	5.936500
380.000000	5.902800
379.000000	5.879100
378.000000	5.859000
377.000000	5.870100
376.000000	5.843200
375.000000	5.837500
374.000000	5.792900
373.000000	5.767900
372.000000	5.777200
371.000000	5.789100
370.000000	5.790100
369.000000	5.720600
368.000000	5.688600
367.000000	5.755000
366.000000	5.718600
365.000000	5.697800
364.000000	5.683700
363.000000	5.696200
362.000000	5.678000
361.000000	5.629700
360.000000	5.603000
359.000000	5.663100
358.000000	5.606900
357.000000	5.583200
356.000000	5.581200
355.000000	5.594200
354.000000	5.553200
353.000000	5.539400
352.000000	5.542800
351.000000	5.575800
350.000000	5.616200
349.000000	5.558600
348.000000	5.512100
347.000000	5.498400
346.000000	5.497800
345.000000	5.527300
344.000000	5.517400
343.000000	5.560000
342.000000	5.562300
341.000000	5.446500
340.000000	5.504300
339.000000	5.573300
338.000000	5.528200
337.000000	5.476200
336.000000	5.505400
335.000000	5.504500
334.000000	5.480000
333.000000	5.503700
332.000000	5.489800
331.000000	5.478800
330.000000	5.520700
329.000000	5.454700
328.000000	5.467300
327.000000	5.491500
326.000000	5.452900
325.000000	5.492000
324.000000	5.434200
323.000000	5.453500
322.000000	5.522900
321.000000	5.572200
320.000000	5.482100
319.000000	5.398100
318.000000	5.307800
317.000000	5.346400
316.000000	5.427400
315.000000	5.428700
314.000000	5.439400
313.000000	5.405700
312.000000	5.380400
311.000000	5.370800
310.000000	5.396500
309.000000	5.416800
308.000000	5.410100
307.000000	5.434700
306.000000	5.416600
305.000000	5.390100
304.000000	5.403400
303.000000	5.405600
302.000000	5.435600
301.000000	5.446100
300.000000	5.441500
299.000000	5.412000
298.000000	5.426900
297.000000	5.457100
296.000000	5.469200
295.000000	5.470900
294.000000	5.457400
293.000000	5.464400
292.000000	5.459900
291.000000	5.482400
290.000000	5.513100
289.000000	5.472100
288.000000	5.455800
287.000000	5.495900
286.000000	5.520300
285.000000	5.511000
284.000000	5.518200
283.000000	5.516800
282.000000	5.536700
281.000000	5.546400
280.000000	5.529300
279.000000	5.536100
278.000000	5.528200
277.000000	5.567000
276.000000	5.563800
275.000000	5.577900
274.000000	5.586600
273.000000	5.589700
272.000000	5.634400
271.000000	5.645100
270.000000	5.631000
269.000000	5.651300
268.000000	5.687700
267.000000	5.714800
266.000000	5.723600
265.000000	5.721800
264.000000	5.738900
263.000000	5.754100
262.000000	5.793800
261.000000	5.812300
260.000000	5.834500
259.000000	5.823200
258.000000	5.827300
257.000000	5.835400
256.000000	5.864100
255.000000	5.875000
254.000000	5.875700
253.000000	5.862100
252.000000	5.888000
251.000000	5.888800
250.000000	5.892200
