PE UV       SUBTECH     SPECTRUM    ASCII       PEDS        4.00        
   -1
CICIMAUCR0008-3.Sample.ASC
24/04/17
09:22:08.00
24/04/17
09:22:08.00
Vinicio Soto Monge
C. kalinini
250,000000
1
Lambda 1050
1050L1511233
PerkinElmer UV WinLab 6.3.2.0749 / 2.02.05 Lambda 900 UV/VIS/NIR, Aug  7 2015 09:38:08

0
0
3350/servo 860,8/2
0
0
UV/VIS
1
1
1
DoubleDePol,CommonBeamDepol,RBeamAtt,SBeamAtt,60mm sphere, WB InGaAs Detector
0
0
0
0
Program
Program
3350/servo 860,8/2
3350/0,2 860,8/0,2
3350/0,2 860,8/0,2
0
15.00
 
 
 
0
 
860,8
319,2
860,8
Front
100
on
S:100 R:100
0
0
0
0
 
0
 
 
 
0
 
 
0
0
0
0
0
 
 
 
 
0
0


0
0
#HDR
-1
-1
#GR
nm
%R
1.0
0.0
2500,000000
-1,000000
2251
8
72,513700
4,506200
#DATA
250.000000	3.469879
251.000000	3.490376
252.000000	3.485254
253.000000	3.489157
254.000000	3.476275
255.000000	3.500421
256.000000	3.479198
257.000000	3.462241
258.000000	3.479926
259.000000	3.471948
260.000000	3.465292
261.000000	3.449928
262.000000	3.443213
263.000000	3.421962
264.000000	3.414556
265.000000	3.397163
266.000000	3.393873
267.000000	3.379532
268.000000	3.395888
269.000000	3.379822
270.000000	3.363992
271.000000	3.338494
272.000000	3.356325
273.000000	3.348832
274.000000	3.358368
275.000000	3.344956
276.000000	3.336111
277.000000	3.351121
278.000000	3.327097
279.000000	3.311193
280.000000	3.308213
281.000000	3.332850
282.000000	3.328170
283.000000	3.318697
284.000000	3.309051
285.000000	3.323841
286.000000	3.296431
287.000000	3.315437
288.000000	3.295263
289.000000	3.282415
290.000000	3.316943
291.000000	3.291174
292.000000	3.328421
293.000000	3.290397
294.000000	3.332294
295.000000	3.310871
296.000000	3.318400
297.000000	3.331699
298.000000	3.335929
299.000000	3.334262
300.000000	3.285839
301.000000	3.301909
302.000000	3.312850
303.000000	3.329870
304.000000	3.325928
305.000000	3.301852
306.000000	3.302045
307.000000	3.302109
308.000000	3.351117
309.000000	3.342285
310.000000	3.333616
311.000000	3.329285
312.000000	3.319065
313.000000	3.318470
314.000000	3.322393
315.000000	3.336991
316.000000	3.366728
317.000000	3.512096
318.000000	3.478511
319.000000	3.517597
320.000000	3.461074
321.000000	3.545950
322.000000	3.551626
323.000000	3.514457
324.000000	3.528334
325.000000	3.626414
326.000000	3.442455
327.000000	3.487240
328.000000	3.530463
329.000000	3.464636
330.000000	3.495679
331.000000	3.561528
332.000000	3.555650
333.000000	3.560998
334.000000	3.592714
335.000000	3.613540
336.000000	3.603688
337.000000	3.596919
338.000000	3.572008
339.000000	3.618635
340.000000	3.695571
341.000000	3.679185
342.000000	3.626291
343.000000	3.640104
344.000000	3.666014
345.000000	3.689316
346.000000	3.677179
347.000000	3.741052
348.000000	3.771386
349.000000	3.776499
350.000000	3.784474
351.000000	3.786883
352.000000	3.808979
353.000000	3.822423
354.000000	3.925177
355.000000	3.886025
356.000000	3.911137
357.000000	3.973906
358.000000	3.993314
359.000000	4.021119
360.000000	4.060918
361.000000	4.102444
362.000000	4.149426
363.000000	4.167726
364.000000	4.225782
365.000000	4.255517
366.000000	4.335391
367.000000	4.352668
368.000000	4.410211
369.000000	4.452713
370.000000	4.479139
371.000000	4.547860
372.000000	4.639760
373.000000	4.681716
374.000000	4.754102
375.000000	4.822240
376.000000	4.868844
377.000000	4.790430
378.000000	4.880042
379.000000	4.979341
380.000000	5.073795
381.000000	5.180608
382.000000	5.284079
383.000000	5.400497
384.000000	5.516493
385.000000	5.646662
386.000000	5.781637
387.000000	5.923484
388.000000	6.063831
389.000000	6.202714
390.000000	6.357893
391.000000	6.520665
392.000000	6.680185
393.000000	6.845469
394.000000	7.027399
395.000000	7.202918
396.000000	7.376410
397.000000	7.556545
398.000000	7.742746
399.000000	7.918578
400.000000	8.099511
401.000000	8.294207
402.000000	8.480000
403.000000	8.670714
404.000000	8.856319
405.000000	9.041835
406.000000	9.225859
407.000000	9.406481
408.000000	9.583635
409.000000	9.766645
410.000000	9.939051
411.000000	10.113190
412.000000	10.285382
413.000000	10.455566
414.000000	10.621176
415.000000	10.778635
416.000000	10.928715
417.000000	11.075643
418.000000	11.214055
419.000000	11.346772
420.000000	11.490349
421.000000	11.620630
422.000000	11.739720
423.000000	11.854419
424.000000	11.968663
425.000000	12.076747
426.000000	12.175430
427.000000	12.274426
428.000000	12.362936
429.000000	12.442838
430.000000	12.522981
431.000000	12.608923
432.000000	12.693743
433.000000	12.757623
434.000000	12.817150
435.000000	12.883535
436.000000	12.941123
437.000000	13.004371
438.000000	13.066741
439.000000	13.118404
440.000000	13.172729
441.000000	13.222004
442.000000	13.272254
443.000000	13.324822
444.000000	13.362554
445.000000	13.372471
446.000000	13.384426
447.000000	13.412495
448.000000	13.445735
449.000000	13.480389
450.000000	13.527157
451.000000	13.568524
452.000000	13.602186
453.000000	13.650283
454.000000	13.695493
455.000000	13.740620
456.000000	13.792358
457.000000	13.850187
458.000000	13.912930
459.000000	13.978951
460.000000	14.054694
461.000000	14.144479
462.000000	14.240390
463.000000	14.336009
464.000000	14.435728
465.000000	14.553904
466.000000	14.684475
467.000000	14.826021
468.000000	14.970433
469.000000	15.124264
470.000000	15.298177
471.000000	15.477102
472.000000	15.661592
473.000000	15.859046
474.000000	16.066260
475.000000	16.287443
476.000000	16.513709
477.000000	16.750160
478.000000	16.982381
479.000000	17.220098
480.000000	17.507436
481.000000	17.830981
482.000000	18.157614
483.000000	18.472847
484.000000	18.756179
485.000000	19.035280
486.000000	19.310456
487.000000	19.587755
488.000000	19.863553
489.000000	20.137858
490.000000	20.418651
491.000000	20.694452
492.000000	20.953439
493.000000	21.204626
494.000000	21.471182
495.000000	21.736916
496.000000	21.990527
497.000000	22.242493
498.000000	22.499575
499.000000	22.756366
500.000000	23.011257
501.000000	23.272054
502.000000	23.545804
503.000000	23.826530
504.000000	24.127585
505.000000	24.410375
506.000000	24.679095
507.000000	24.962068
508.000000	25.250991
509.000000	25.550647
510.000000	25.838847
511.000000	26.145080
512.000000	26.437637
513.000000	26.738238
514.000000	27.046071
515.000000	27.358629
516.000000	27.659930
517.000000	27.933294
518.000000	28.232335
519.000000	28.517982
520.000000	28.804175
521.000000	29.086042
522.000000	29.348151
523.000000	29.613137
524.000000	29.886761
525.000000	30.149005
526.000000	30.382048
527.000000	30.628618
528.000000	30.888415
529.000000	31.124204
530.000000	31.334748
531.000000	31.533300
532.000000	31.739286
533.000000	31.947126
534.000000	32.137452
535.000000	32.309619
536.000000	32.481213
537.000000	32.660912
538.000000	32.833241
539.000000	32.992253
540.000000	33.130681
541.000000	33.269649
542.000000	33.407166
543.000000	33.527694
544.000000	33.660607
545.000000	33.773350
546.000000	33.854148
547.000000	33.960874
548.000000	34.061903
549.000000	34.145040
550.000000	34.228928
551.000000	34.301630
552.000000	34.354789
553.000000	34.400046
554.000000	34.449913
555.000000	34.485914
556.000000	34.522541
557.000000	34.544713
558.000000	34.550962
559.000000	34.562603
560.000000	34.195585
561.000000	34.181155
562.000000	34.190785
563.000000	34.192964
564.000000	34.194952
565.000000	34.183419
566.000000	34.154842
567.000000	34.130170
568.000000	34.086200
569.000000	34.064662
570.000000	34.041109
571.000000	34.001424
572.000000	33.946915
573.000000	33.906306
574.000000	33.842257
575.000000	33.784417
576.000000	33.709029
577.000000	33.651786
578.000000	33.552856
579.000000	33.483687
580.000000	33.419750
581.000000	33.323857
582.000000	33.230520
583.000000	33.128558
584.000000	33.031484
585.000000	32.920634
586.000000	32.818408
587.000000	32.727789
588.000000	32.622202
589.000000	32.538735
590.000000	32.453538
591.000000	32.363820
592.000000	32.274618
593.000000	32.178367
594.000000	32.112845
595.000000	32.032639
596.000000	31.948519
597.000000	31.883108
598.000000	31.818733
599.000000	31.743427
600.000000	31.674800
601.000000	31.627517
602.000000	31.576298
603.000000	31.554354
604.000000	31.514122
605.000000	31.489923
606.000000	31.470983
607.000000	31.459391
608.000000	31.464820
609.000000	31.491728
610.000000	31.526951
611.000000	31.560061
612.000000	31.608251
613.000000	31.656594
614.000000	31.706829
615.000000	31.786327
616.000000	31.877869
617.000000	31.992956
618.000000	32.090989
619.000000	32.205439
620.000000	32.346477
621.000000	32.459495
622.000000	32.566548
623.000000	32.701091
624.000000	32.849879
625.000000	33.008304
626.000000	33.144638
627.000000	33.305009
628.000000	33.467478
629.000000	33.631435
630.000000	33.807907
631.000000	33.973089
632.000000	34.140411
633.000000	34.317097
634.000000	34.494853
635.000000	34.685295
636.000000	34.854984
637.000000	35.043824
638.000000	35.234112
639.000000	35.425729
640.000000	35.621175
641.000000	35.811450
642.000000	35.984070
643.000000	36.196159
644.000000	36.385967
645.000000	36.577437
646.000000	36.772266
647.000000	36.929678
648.000000	37.119350
649.000000	37.277906
650.000000	37.463407
651.000000	37.626123
652.000000	37.798306
653.000000	37.958825
654.000000	38.139980
655.000000	38.314178
656.000000	38.494867
657.000000	38.674484
658.000000	38.838306
659.000000	39.026081
660.000000	39.210133
661.000000	39.383903
662.000000	39.585250
663.000000	39.778413
664.000000	39.967453
665.000000	40.188653
666.000000	40.401397
667.000000	40.599668
668.000000	40.797555
669.000000	40.987550
670.000000	41.199461
671.000000	41.432836
672.000000	41.642068
673.000000	41.857565
674.000000	42.076725
675.000000	42.290484
676.000000	42.503465
677.000000	42.719078
678.000000	42.931627
679.000000	43.142698
680.000000	43.341158
681.000000	43.528602
682.000000	43.719821
683.000000	43.911303
684.000000	44.112843
685.000000	44.304757
686.000000	44.477544
687.000000	44.608575
688.000000	44.716546
689.000000	44.887040
690.000000	45.066045
691.000000	45.232190
692.000000	45.420831
693.000000	45.581079
694.000000	45.738793
695.000000	45.877208
696.000000	46.030494
697.000000	46.141929
698.000000	46.238874
699.000000	46.393617
700.000000	46.549562
701.000000	46.664747
702.000000	46.824376
703.000000	46.960696
704.000000	47.086020
705.000000	47.197508
706.000000	47.299851
707.000000	47.415675
708.000000	47.522930
709.000000	47.637097
710.000000	47.761723
711.000000	47.832816
712.000000	47.905866
713.000000	48.005967
714.000000	48.121968
715.000000	48.233521
716.000000	48.280643
717.000000	48.344099
718.000000	48.403859
719.000000	48.492685
720.000000	48.553809
721.000000	48.620637
722.000000	48.685615
723.000000	48.738427
724.000000	48.794455
725.000000	48.825428
726.000000	48.879488
727.000000	48.946178
728.000000	48.979295
729.000000	48.996850
730.000000	49.042907
731.000000	49.095971
732.000000	49.122386
733.000000	49.117763
734.000000	49.095409
735.000000	49.092431
736.000000	49.099903
737.000000	49.096618
738.000000	49.085345
739.000000	49.093041
740.000000	49.071291
741.000000	49.031723
742.000000	49.015346
743.000000	48.987076
744.000000	48.934978
745.000000	48.850335
746.000000	48.782918
747.000000	48.725035
748.000000	48.678354
749.000000	48.621150
750.000000	48.566127
751.000000	48.479004
752.000000	48.372067
753.000000	48.286970
754.000000	48.212435
755.000000	48.124823
756.000000	47.997077
757.000000	47.905211
758.000000	47.811406
759.000000	47.708613
760.000000	47.606229
761.000000	47.466446
762.000000	47.307268
763.000000	47.189332
764.000000	47.058155
765.000000	46.901878
766.000000	46.790717
767.000000	46.639409
768.000000	46.498868
769.000000	46.402177
770.000000	46.305823
771.000000	46.126278
772.000000	45.950109
773.000000	45.799167
774.000000	45.644862
775.000000	45.519109
776.000000	45.349843
777.000000	45.182762
778.000000	45.048123
779.000000	44.893876
780.000000	44.725557
781.000000	44.561146
782.000000	44.420745
783.000000	44.249530
784.000000	44.080231
785.000000	43.934658
786.000000	43.810560
787.000000	43.691275
788.000000	43.542383
789.000000	43.381203
790.000000	43.229388
791.000000	43.121709
792.000000	42.990901
793.000000	42.827470
794.000000	42.724536
795.000000	42.609178
796.000000	42.449713
797.000000	42.335535
798.000000	42.213938
799.000000	42.153745
800.000000	42.077812
801.000000	41.954689
802.000000	41.807064
803.000000	41.753699
804.000000	41.659201
805.000000	41.537527
806.000000	41.431597
807.000000	41.327080
808.000000	41.261469
809.000000	41.172587
810.000000	41.072235
811.000000	40.989416
812.000000	40.914866
813.000000	40.878392
814.000000	40.810385
815.000000	40.734702
816.000000	40.678750
817.000000	40.629759
818.000000	40.572133
819.000000	40.500917
820.000000	40.460313
821.000000	40.451195
822.000000	40.393783
823.000000	40.316980
824.000000	40.265699
825.000000	40.188394
826.000000	40.196051
827.000000	40.199004
828.000000	40.186110
829.000000	40.140665
830.000000	40.174456
831.000000	40.097536
832.000000	40.043724
833.000000	40.008661
834.000000	40.044393
835.000000	39.966517
836.000000	39.942897
837.000000	39.846096
838.000000	39.905828
839.000000	39.907933
840.000000	39.868386
841.000000	39.795959
842.000000	39.638146
843.000000	39.537769
844.000000	39.528398
845.000000	39.536148
846.000000	39.445878
847.000000	39.366467
848.000000	39.380619
849.000000	39.174416
850.000000	39.101024
851.000000	39.150495
852.000000	39.037529
853.000000	38.942800
854.000000	38.763948
855.000000	38.817242
856.000000	38.766449
857.000000	38.727887
858.000000	38.741233
859.000000	38.822800
860.000000	38.691800
861.000000	38.563267
862.000000	38.451767
863.000000	38.316033
864.000000	38.197500
865.000000	38.101067
866.000000	37.963867
867.000000	37.838133
868.000000	37.708767
869.000000	37.595733
870.000000	37.471033
871.000000	37.368900
872.000000	37.276900
873.000000	37.138633
874.000000	37.040433
875.000000	36.964633
876.000000	36.868933
877.000000	36.778400
878.000000	36.706033
879.000000	36.629033
880.000000	36.529300
881.000000	36.453133
882.000000	36.385633
883.000000	36.333800
884.000000	36.282733
885.000000	36.231733
886.000000	36.129200
887.000000	36.055733
888.000000	36.008367
889.000000	35.973067
890.000000	35.908800
891.000000	35.863200
892.000000	35.830500
893.000000	35.758267
894.000000	35.704700
895.000000	35.646800
896.000000	35.613733
897.000000	35.588033
898.000000	35.519333
899.000000	35.493133
900.000000	35.456067
901.000000	35.399600
902.000000	35.377733
903.000000	35.340533
904.000000	35.315167
905.000000	35.289967
906.000000	35.257833
907.000000	35.241667
908.000000	35.219367
909.000000	35.216533
910.000000	35.222267
911.000000	35.240067
912.000000	35.232633
913.000000	35.214667
914.000000	35.232967
915.000000	35.265567
916.000000	35.298867
917.000000	35.329700
918.000000	35.317000
919.000000	35.346100
920.000000	35.371933
921.000000	35.391300
922.000000	35.415867
923.000000	35.455433
924.000000	35.493267
925.000000	35.508100
926.000000	35.555500
927.000000	35.595433
928.000000	35.638900
929.000000	35.687267
930.000000	35.740167
931.000000	35.766967
932.000000	35.800233
933.000000	35.837933
934.000000	35.874000
935.000000	35.900733
936.000000	35.951867
937.000000	35.985533
938.000000	36.030433
939.000000	36.076833
940.000000	36.124367
941.000000	36.192133
942.000000	36.240667
943.000000	36.278967
944.000000	36.352167
945.000000	36.416000
946.000000	36.504600
947.000000	36.557100
948.000000	36.615600
949.000000	36.673200
950.000000	36.735433
951.000000	36.792433
952.000000	36.850300
953.000000	36.899900
954.000000	36.958100
955.000000	37.032500
956.000000	37.067733
957.000000	37.115400
958.000000	37.157167
959.000000	37.216567
960.000000	37.268067
961.000000	37.326167
962.000000	37.366400
963.000000	37.417367
964.000000	37.486667
965.000000	37.547367
966.000000	37.600533
967.000000	37.651533
968.000000	37.708367
969.000000	37.784133
970.000000	37.835000
971.000000	37.883400
972.000000	37.944533
973.000000	37.989967
974.000000	38.033800
975.000000	38.093400
976.000000	38.161200
977.000000	38.215900
978.000000	38.270267
979.000000	38.321700
980.000000	38.375200
981.000000	38.419500
982.000000	38.467533
983.000000	38.525600
984.000000	38.568133
985.000000	38.620367
986.000000	38.687267
987.000000	38.738900
988.000000	38.781100
989.000000	38.825733
990.000000	38.879800
991.000000	38.933033
992.000000	38.974733
993.000000	39.031933
994.000000	39.096033
995.000000	39.135233
996.000000	39.196467
997.000000	39.255067
998.000000	39.293367
999.000000	39.336267
1000.000000	39.388767
1001.000000	39.441167
1002.000000	39.498667
1003.000000	39.556900
1004.000000	39.601967
1005.000000	39.645667
1006.000000	39.684633
1007.000000	39.733733
1008.000000	39.779767
1009.000000	39.824100
1010.000000	39.879767
1011.000000	39.933867
1012.000000	39.986600
1013.000000	40.035633
1014.000000	40.085567
1015.000000	40.154567
1016.000000	40.226000
1017.000000	40.273067
1018.000000	40.339300
1019.000000	40.413700
1020.000000	40.483167
1021.000000	40.549833
1022.000000	40.618500
1023.000000	40.692567
1024.000000	40.751733
1025.000000	40.817167
1026.000000	40.890900
1027.000000	40.956300
1028.000000	41.027267
1029.000000	41.091333
1030.000000	41.159300
1031.000000	41.230933
1032.000000	41.292000
1033.000000	41.353033
1034.000000	41.418067
1035.000000	41.475533
1036.000000	41.520600
1037.000000	41.584967
1038.000000	41.654633
1039.000000	41.708567
1040.000000	41.758200
1041.000000	41.811533
1042.000000	41.862000
1043.000000	41.917900
1044.000000	41.973133
1045.000000	42.026867
1046.000000	42.089333
1047.000000	42.148067
1048.000000	42.199633
1049.000000	42.255433
1050.000000	42.327400
1051.000000	42.388300
1052.000000	42.439567
1053.000000	42.487600
1054.000000	42.551633
1055.000000	42.623900
1056.000000	42.682567
1057.000000	42.743567
1058.000000	42.811000
1059.000000	42.875333
1060.000000	42.939767
1061.000000	42.995700
1062.000000	43.054200
1063.000000	43.130267
1064.000000	43.183000
1065.000000	43.247400
1066.000000	43.311433
1067.000000	43.369000
1068.000000	43.437067
1069.000000	43.496000
1070.000000	43.555033
1071.000000	43.618000
1072.000000	43.675567
1073.000000	43.734433
1074.000000	43.791467
1075.000000	43.841367
1076.000000	43.898900
1077.000000	43.961333
1078.000000	44.015567
1079.000000	44.060333
1080.000000	44.116067
1081.000000	44.170000
1082.000000	44.224033
1083.000000	44.278000
1084.000000	44.330367
1085.000000	44.374600
1086.000000	44.447500
1087.000000	44.500733
1088.000000	44.547533
1089.000000	44.597833
1090.000000	44.649833
1091.000000	44.695067
1092.000000	44.741167
1093.000000	44.780367
1094.000000	44.832733
1095.000000	44.880967
1096.000000	44.926033
1097.000000	44.969800
1098.000000	45.015100
1099.000000	45.042833
1100.000000	45.097033
1101.000000	45.127000
1102.000000	45.156767
1103.000000	45.184500
1104.000000	45.213333
1105.000000	45.251167
1106.000000	45.279500
1107.000000	45.316300
1108.000000	45.343767
1109.000000	45.372100
1110.000000	45.393800
1111.000000	45.427300
1112.000000	45.464767
1113.000000	45.495600
1114.000000	45.524333
1115.000000	45.548200
1116.000000	45.580533
1117.000000	45.609567
1118.000000	45.629967
1119.000000	45.642700
1120.000000	45.643500
1121.000000	45.645467
1122.000000	45.651333
1123.000000	45.637333
1124.000000	45.637933
1125.000000	45.614833
1126.000000	45.602867
1127.000000	45.567567
1128.000000	45.546267
1129.000000	45.480267
1130.000000	45.382500
1131.000000	45.297933
1132.000000	45.191333
1133.000000	45.103300
1134.000000	45.017200
1135.000000	44.836467
1136.000000	44.656133
1137.000000	44.492333
1138.000000	44.346900
1139.000000	44.200833
1140.000000	44.050267
1141.000000	43.902033
1142.000000	43.752600
1143.000000	43.627133
1144.000000	43.502433
1145.000000	43.397667
1146.000000	43.319967
1147.000000	43.274267
1148.000000	43.262333
1149.000000	43.249967
1150.000000	43.256033
1151.000000	43.256533
1152.000000	43.263100
1153.000000	43.244933
1154.000000	43.194167
1155.000000	43.132700
1156.000000	43.037567
1157.000000	42.918433
1158.000000	42.762833
1159.000000	42.590600
1160.000000	42.430067
1161.000000	42.265867
1162.000000	42.070900
1163.000000	41.900133
1164.000000	41.709567
1165.000000	41.521667
1166.000000	41.324867
1167.000000	41.136767
1168.000000	40.969300
1169.000000	40.792167
1170.000000	40.628700
1171.000000	40.454533
1172.000000	40.292167
1173.000000	40.147900
1174.000000	39.994600
1175.000000	39.864167
1176.000000	39.728233
1177.000000	39.579200
1178.000000	39.407067
1179.000000	39.211600
1180.000000	38.985233
1181.000000	38.768233
1182.000000	38.554133
1183.000000	38.356367
1184.000000	38.214067
1185.000000	38.131500
1186.000000	38.099467
1187.000000	38.117267
1188.000000	38.208800
1189.000000	38.335633
1190.000000	38.522500
1191.000000	38.728300
1192.000000	38.947267
1193.000000	39.146200
1194.000000	39.336133
1195.000000	39.484800
1196.000000	39.619067
1197.000000	39.715300
1198.000000	39.804100
1199.000000	39.877433
1200.000000	39.925500
1201.000000	39.967667
1202.000000	39.995467
1203.000000	40.028667
1204.000000	40.065367
1205.000000	40.089967
1206.000000	40.122067
1207.000000	40.172533
1208.000000	40.222133
1209.000000	40.272233
1210.000000	40.343267
1211.000000	40.410133
1212.000000	40.476667
1213.000000	40.557500
1214.000000	40.619533
1215.000000	40.686667
1216.000000	40.763933
1217.000000	40.839633
1218.000000	40.921467
1219.000000	41.006067
1220.000000	41.100433
1221.000000	41.180900
1222.000000	41.275833
1223.000000	41.368000
1224.000000	41.475667
1225.000000	41.573400
1226.000000	41.663967
1227.000000	41.755233
1228.000000	41.847733
1229.000000	41.941867
1230.000000	42.035067
1231.000000	42.129300
1232.000000	42.227233
1233.000000	42.305700
1234.000000	42.399533
1235.000000	42.491133
1236.000000	42.577300
1237.000000	42.671800
1238.000000	42.737233
1239.000000	42.815467
1240.000000	42.894133
1241.000000	42.977100
1242.000000	43.057000
1243.000000	43.138700
1244.000000	43.211300
1245.000000	43.280367
1246.000000	43.363500
1247.000000	43.424667
1248.000000	43.479000
1249.000000	43.544467
1250.000000	43.610367
1251.000000	43.662867
1252.000000	43.707433
1253.000000	43.755233
1254.000000	43.796500
1255.000000	43.831800
1256.000000	43.876233
1257.000000	43.915367
1258.000000	43.953033
1259.000000	43.980833
1260.000000	44.001633
1261.000000	44.023467
1262.000000	44.050933
1263.000000	44.079867
1264.000000	44.110267
1265.000000	44.139100
1266.000000	44.164700
1267.000000	44.186100
1268.000000	44.214300
1269.000000	44.241767
1270.000000	44.262833
1271.000000	44.283600
1272.000000	44.299733
1273.000000	44.323400
1274.000000	44.344700
1275.000000	44.372967
1276.000000	44.408167
1277.000000	44.440800
1278.000000	44.475267
1279.000000	44.521500
1280.000000	44.559867
1281.000000	44.596700
1282.000000	44.643333
1283.000000	44.687433
1284.000000	44.731233
1285.000000	44.769233
1286.000000	44.798633
1287.000000	44.836800
1288.000000	44.871667
1289.000000	44.901633
1290.000000	44.930500
1291.000000	44.958500
1292.000000	44.980500
1293.000000	44.991867
1294.000000	45.009700
1295.000000	45.024733
1296.000000	45.037633
1297.000000	45.055600
1298.000000	45.072767
1299.000000	45.075800
1300.000000	45.083533
1301.000000	45.094000
1302.000000	45.093600
1303.000000	45.098367
1304.000000	45.103733
1305.000000	45.094400
1306.000000	45.091300
1307.000000	45.080433
1308.000000	45.057333
1309.000000	45.039100
1310.000000	45.014133
1311.000000	44.991000
1312.000000	44.972133
1313.000000	44.945400
1314.000000	44.908567
1315.000000	44.874133
1316.000000	44.829800
1317.000000	44.783867
1318.000000	44.743267
1319.000000	44.697100
1320.000000	44.640200
1321.000000	44.578200
1322.000000	44.520233
1323.000000	44.459167
1324.000000	44.393033
1325.000000	44.333000
1326.000000	44.268867
1327.000000	44.200233
1328.000000	44.131067
1329.000000	44.046333
1330.000000	43.955367
1331.000000	43.873200
1332.000000	43.771833
1333.000000	43.656267
1334.000000	43.545000
1335.000000	43.434100
1336.000000	43.313733
1337.000000	43.188200
1338.000000	43.058133
1339.000000	42.920000
1340.000000	42.778700
1341.000000	42.626533
1342.000000	42.456567
1343.000000	42.291100
1344.000000	42.111133
1345.000000	41.904100
1346.000000	41.696700
1347.000000	41.518267
1348.000000	41.296967
1349.000000	41.051700
1350.000000	40.802700
1351.000000	40.528000
1352.000000	40.219533
1353.000000	39.922833
1354.000000	39.687733
1355.000000	39.433767
1356.000000	39.179933
1357.000000	39.037200
1358.000000	38.944533
1359.000000	38.873000
1360.000000	38.864367
1361.000000	38.832533
1362.000000	38.703933
1363.000000	38.585867
1364.000000	38.516533
1365.000000	38.404300
1366.000000	38.265700
1367.000000	38.170333
1368.000000	38.029467
1369.000000	37.845433
1370.000000	37.693633
1371.000000	37.533133
1372.000000	37.320000
1373.000000	37.118800
1374.000000	36.969467
1375.000000	36.843067
1376.000000	36.736700
1377.000000	36.667933
1378.000000	36.593733
1379.000000	36.546167
1380.000000	36.454667
1381.000000	36.408633
1382.000000	36.276833
1383.000000	36.077100
1384.000000	35.860800
1385.000000	35.601000
1386.000000	35.400733
1387.000000	35.252233
1388.000000	35.085800
1389.000000	34.851033
1390.000000	34.665400
1391.000000	34.548467
1392.000000	34.408600
1393.000000	34.210167
1394.000000	34.113000
1395.000000	34.054333
1396.000000	33.864133
1397.000000	33.587033
1398.000000	33.415500
1399.000000	33.327167
1400.000000	33.191200
1401.000000	32.915933
1402.000000	32.561467
1403.000000	32.339833
1404.000000	32.108233
1405.000000	31.865667
1406.000000	31.585267
1407.000000	31.344433
1408.000000	31.105733
1409.000000	30.889633
1410.000000	30.625533
1411.000000	30.375467
1412.000000	30.177200
1413.000000	30.036467
1414.000000	29.867567
1415.000000	29.647133
1416.000000	29.423500
1417.000000	29.236900
1418.000000	29.124100
1419.000000	28.947300
1420.000000	28.777367
1421.000000	28.570967
1422.000000	28.408733
1423.000000	28.259533
1424.000000	28.119867
1425.000000	27.928167
1426.000000	27.774467
1427.000000	27.637900
1428.000000	27.522533
1429.000000	27.379700
1430.000000	27.266000
1431.000000	27.174967
1432.000000	27.056367
1433.000000	26.941500
1434.000000	26.863267
1435.000000	26.764133
1436.000000	26.671967
1437.000000	26.606467
1438.000000	26.518533
1439.000000	26.415200
1440.000000	26.340567
1441.000000	26.260000
1442.000000	26.180400
1443.000000	26.088067
1444.000000	26.026500
1445.000000	25.975633
1446.000000	25.901967
1447.000000	25.799700
1448.000000	25.724900
1449.000000	25.659100
1450.000000	25.615767
1451.000000	25.554900
1452.000000	25.486367
1453.000000	25.401300
1454.000000	25.337000
1455.000000	25.273767
1456.000000	25.207000
1457.000000	25.155700
1458.000000	25.092567
1459.000000	25.039700
1460.000000	24.977367
1461.000000	24.912667
1462.000000	24.852733
1463.000000	24.801633
1464.000000	24.751533
1465.000000	24.704067
1466.000000	24.666933
1467.000000	24.630467
1468.000000	24.568033
1469.000000	24.534133
1470.000000	24.505600
1471.000000	24.464767
1472.000000	24.422200
1473.000000	24.379700
1474.000000	24.329800
1475.000000	24.296633
1476.000000	24.274800
1477.000000	24.242967
1478.000000	24.211333
1479.000000	24.176967
1480.000000	24.165567
1481.000000	24.139267
1482.000000	24.112767
1483.000000	24.087667
1484.000000	24.076533
1485.000000	24.058933
1486.000000	24.045833
1487.000000	24.029033
1488.000000	24.008767
1489.000000	23.998867
1490.000000	23.984933
1491.000000	23.980067
1492.000000	23.967333
1493.000000	23.959567
1494.000000	23.952633
1495.000000	23.957933
1496.000000	23.962500
1497.000000	23.964100
1498.000000	23.971767
1499.000000	23.977467
1500.000000	23.983967
1501.000000	24.002000
1502.000000	24.032700
1503.000000	24.051933
1504.000000	24.057100
1505.000000	24.089633
1506.000000	24.110667
1507.000000	24.142767
1508.000000	24.169267
1509.000000	24.195600
1510.000000	24.220900
1511.000000	24.247100
1512.000000	24.274800
1513.000000	24.309000
1514.000000	24.331533
1515.000000	24.353300
1516.000000	24.387700
1517.000000	24.413900
1518.000000	24.438000
1519.000000	24.456400
1520.000000	24.482200
1521.000000	24.505033
1522.000000	24.534167
1523.000000	24.554633
1524.000000	24.584433
1525.000000	24.614000
1526.000000	24.635133
1527.000000	24.656200
1528.000000	24.668133
1529.000000	24.683800
1530.000000	24.707400
1531.000000	24.724033
1532.000000	24.747867
1533.000000	24.765233
1534.000000	24.779767
1535.000000	24.790200
1536.000000	24.800133
1537.000000	24.801700
1538.000000	24.810133
1539.000000	24.823333
1540.000000	24.833767
1541.000000	24.837600
1542.000000	24.842700
1543.000000	24.863333
1544.000000	24.879000
1545.000000	24.895767
1546.000000	24.909733
1547.000000	24.930767
1548.000000	24.959133
1549.000000	24.988433
1550.000000	25.013467
1551.000000	25.039267
1552.000000	25.057833
1553.000000	25.081067
1554.000000	25.103333
1555.000000	25.116200
1556.000000	25.125700
1557.000000	25.129633
1558.000000	25.135467
1559.000000	25.146267
1560.000000	25.149133
1561.000000	25.147600
1562.000000	25.141500
1563.000000	25.132067
1564.000000	25.117300
1565.000000	25.105400
1566.000000	25.098733
1567.000000	25.086500
1568.000000	25.075633
1569.000000	25.061267
1570.000000	25.042967
1571.000000	25.031333
1572.000000	25.023900
1573.000000	25.012033
1574.000000	25.003667
1575.000000	25.001433
1576.000000	25.001367
1577.000000	25.009767
1578.000000	25.011400
1579.000000	25.018033
1580.000000	25.037133
1581.000000	25.049200
1582.000000	25.067133
1583.000000	25.079133
1584.000000	25.091000
1585.000000	25.111667
1586.000000	25.132600
1587.000000	25.159800
1588.000000	25.188400
1589.000000	25.207800
1590.000000	25.239400
1591.000000	25.267733
1592.000000	25.298900
1593.000000	25.335733
1594.000000	25.377667
1595.000000	25.410433
1596.000000	25.445700
1597.000000	25.484167
1598.000000	25.530467
1599.000000	25.572133
1600.000000	25.617667
1601.000000	25.662767
1602.000000	25.702567
1603.000000	25.747200
1604.000000	25.796733
1605.000000	25.852267
1606.000000	25.890967
1607.000000	25.939400
1608.000000	25.993300
1609.000000	26.034133
1610.000000	26.085567
1611.000000	26.121167
1612.000000	26.153100
1613.000000	26.195167
1614.000000	26.234500
1615.000000	26.273600
1616.000000	26.317700
1617.000000	26.352367
1618.000000	26.397367
1619.000000	26.434400
1620.000000	26.460700
1621.000000	26.503200
1622.000000	26.544400
1623.000000	26.577767
1624.000000	26.617400
1625.000000	26.651300
1626.000000	26.696333
1627.000000	26.739500
1628.000000	26.781233
1629.000000	26.818700
1630.000000	26.863067
1631.000000	26.906767
1632.000000	26.936000
1633.000000	26.967700
1634.000000	26.999900
1635.000000	27.025133
1636.000000	27.059800
1637.000000	27.092400
1638.000000	27.111967
1639.000000	27.144300
1640.000000	27.186000
1641.000000	27.194167
1642.000000	27.230467
1643.000000	27.257600
1644.000000	27.271100
1645.000000	27.290633
1646.000000	27.315600
1647.000000	27.330833
1648.000000	27.332500
1649.000000	27.351433
1650.000000	27.364600
1651.000000	27.378833
1652.000000	27.386833
1653.000000	27.381333
1654.000000	27.380167
1655.000000	27.362167
1656.000000	27.353333
1657.000000	27.329000
1658.000000	27.301067
1659.000000	27.268600
1660.000000	27.217933
1661.000000	27.178400
1662.000000	27.119400
1663.000000	27.063133
1664.000000	26.986500
1665.000000	26.921433
1666.000000	26.842367
1667.000000	26.775133
1668.000000	26.658233
1669.000000	26.559867
1670.000000	26.436900
1671.000000	26.322733
1672.000000	26.192267
1673.000000	26.044567
1674.000000	25.897267
1675.000000	25.742133
1676.000000	25.549833
1677.000000	25.368667
1678.000000	25.140433
1679.000000	24.918433
1680.000000	24.695967
1681.000000	24.475167
1682.000000	24.274733
1683.000000	24.131067
1684.000000	24.016633
1685.000000	23.926633
1686.000000	23.860933
1687.000000	23.818800
1688.000000	23.797800
1689.000000	23.750633
1690.000000	23.718633
1691.000000	23.686733
1692.000000	23.646267
1693.000000	23.641633
1694.000000	23.636433
1695.000000	23.618467
1696.000000	23.624800
1697.000000	23.646433
1698.000000	23.686500
1699.000000	23.712567
1700.000000	23.759033
1701.000000	23.780500
1702.000000	23.814300
1703.000000	23.821700
1704.000000	23.826733
1705.000000	23.824933
1706.000000	23.825633
1707.000000	23.807100
1708.000000	23.779167
1709.000000	23.757867
1710.000000	23.731933
1711.000000	23.674300
1712.000000	23.632000
1713.000000	23.579967
1714.000000	23.502100
1715.000000	23.438267
1716.000000	23.344733
1717.000000	23.267000
1718.000000	23.194933
1719.000000	23.129100
1720.000000	23.048867
1721.000000	23.002933
1722.000000	22.958667
1723.000000	22.939967
1724.000000	22.917933
1725.000000	22.901433
1726.000000	22.889367
1727.000000	22.868733
1728.000000	22.851033
1729.000000	22.828333
1730.000000	22.809400
1731.000000	22.791800
1732.000000	22.784067
1733.000000	22.784533
1734.000000	22.790333
1735.000000	22.823533
1736.000000	22.844233
1737.000000	22.905567
1738.000000	22.973933
1739.000000	23.056333
1740.000000	23.133700
1741.000000	23.218867
1742.000000	23.306200
1743.000000	23.384033
1744.000000	23.450367
1745.000000	23.524500
1746.000000	23.574433
1747.000000	23.620533
1748.000000	23.661233
1749.000000	23.703400
1750.000000	23.730400
1751.000000	23.745200
1752.000000	23.753367
1753.000000	23.766633
1754.000000	23.759033
1755.000000	23.753533
1756.000000	23.769533
1757.000000	23.745467
1758.000000	23.736500
1759.000000	23.720033
1760.000000	23.699533
1761.000000	23.685600
1762.000000	23.672333
1763.000000	23.666533
1764.000000	23.688767
1765.000000	23.696700
1766.000000	23.730433
1767.000000	23.770233
1768.000000	23.813133
1769.000000	23.859567
1770.000000	23.915767
1771.000000	23.966533
1772.000000	24.015567
1773.000000	24.062767
1774.000000	24.114233
1775.000000	24.160000
1776.000000	24.209067
1777.000000	24.261333
1778.000000	24.309300
1779.000000	24.356467
1780.000000	24.391300
1781.000000	24.421800
1782.000000	24.454633
1783.000000	24.475967
1784.000000	24.512900
1785.000000	24.542667
1786.000000	24.559600
1787.000000	24.580933
1788.000000	24.596367
1789.000000	24.616933
1790.000000	24.635133
1791.000000	24.651033
1792.000000	24.678300
1793.000000	24.703100
1794.000000	24.721600
1795.000000	24.751633
1796.000000	24.770400
1797.000000	24.786667
1798.000000	24.790833
1799.000000	24.807400
1800.000000	24.835133
1801.000000	24.872467
1802.000000	24.892433
1803.000000	24.904333
1804.000000	24.923000
1805.000000	24.942867
1806.000000	24.964167
1807.000000	24.972200
1808.000000	24.967567
1809.000000	24.976233
1810.000000	25.006167
1811.000000	25.042067
1812.000000	25.057500
1813.000000	25.062800
1814.000000	25.059667
1815.000000	25.073467
1816.000000	25.070833
1817.000000	25.048567
1818.000000	25.040200
1819.000000	25.059333
1820.000000	25.097433
1821.000000	25.111467
1822.000000	25.093600
1823.000000	25.081633
1824.000000	25.095667
1825.000000	25.117167
1826.000000	25.155667
1827.000000	25.176267
1828.000000	25.200900
1829.000000	25.258067
1830.000000	25.298067
1831.000000	25.317733
1832.000000	25.342367
1833.000000	25.378167
1834.000000	25.428533
1835.000000	25.480733
1836.000000	25.511200
1837.000000	25.529300
1838.000000	25.541533
1839.000000	25.570433
1840.000000	25.622233
1841.000000	25.662667
1842.000000	25.657100
1843.000000	25.632933
1844.000000	25.633500
1845.000000	25.668400
1846.000000	25.733833
1847.000000	25.797700
1848.000000	25.804000
1849.000000	25.794133
1850.000000	25.796667
1851.000000	25.813200
1852.000000	25.831767
1853.000000	25.857600
1854.000000	25.876667
1855.000000	25.869033
1856.000000	25.873633
1857.000000	25.877467
1858.000000	25.859000
1859.000000	25.843967
1860.000000	25.824367
1861.000000	25.783067
1862.000000	25.742200
1863.000000	25.696467
1864.000000	25.668200
1865.000000	25.625467
1866.000000	25.569733
1867.000000	25.533200
1868.000000	25.452300
1869.000000	25.325833
1870.000000	25.206233
1871.000000	25.074333
1872.000000	24.920367
1873.000000	24.765333
1874.000000	24.601233
1875.000000	24.424167
1876.000000	24.245367
1877.000000	24.061333
1878.000000	23.857667
1879.000000	23.627567
1880.000000	23.394967
1881.000000	23.156667
1882.000000	22.888700
1883.000000	22.645433
1884.000000	22.389500
1885.000000	22.092133
1886.000000	21.807367
1887.000000	21.544767
1888.000000	21.276733
1889.000000	20.990100
1890.000000	20.744833
1891.000000	20.474167
1892.000000	20.165533
1893.000000	19.859767
1894.000000	19.576700
1895.000000	19.293633
1896.000000	19.045867
1897.000000	18.787033
1898.000000	18.481000
1899.000000	18.206933
1900.000000	17.895700
1901.000000	17.593500
1902.000000	17.329133
1903.000000	17.082733
1904.000000	16.845133
1905.000000	16.604200
1906.000000	16.319933
1907.000000	16.066233
1908.000000	15.856333
1909.000000	15.664500
1910.000000	15.505300
1911.000000	15.306400
1912.000000	15.149233
1913.000000	14.963967
1914.000000	14.784100
1915.000000	14.603433
1916.000000	14.471367
1917.000000	14.347067
1918.000000	14.216633
1919.000000	14.096300
1920.000000	14.015600
1921.000000	13.894767
1922.000000	13.771933
1923.000000	13.673533
1924.000000	13.586600
1925.000000	13.528567
1926.000000	13.462067
1927.000000	13.407700
1928.000000	13.356833
1929.000000	13.313567
1930.000000	13.262000
1931.000000	13.241667
1932.000000	13.198833
1933.000000	13.186433
1934.000000	13.171767
1935.000000	13.172733
1936.000000	13.162333
1937.000000	13.169433
1938.000000	13.174600
1939.000000	13.197800
1940.000000	13.207400
1941.000000	13.242867
1942.000000	13.254633
1943.000000	13.288000
1944.000000	13.324600
1945.000000	13.352000
1946.000000	13.385033
1947.000000	13.431667
1948.000000	13.476233
1949.000000	13.517333
1950.000000	13.559000
1951.000000	13.595767
1952.000000	13.649633
1953.000000	13.711433
1954.000000	13.771600
1955.000000	13.816633
1956.000000	13.874100
1957.000000	13.926100
1958.000000	13.972967
1959.000000	14.011267
1960.000000	14.074467
1961.000000	14.130600
1962.000000	14.183233
1963.000000	14.237367
1964.000000	14.284200
1965.000000	14.326967
1966.000000	14.383000
1967.000000	14.428500
1968.000000	14.479933
1969.000000	14.526967
1970.000000	14.572600
1971.000000	14.630500
1972.000000	14.689767
1973.000000	14.744633
1974.000000	14.791167
1975.000000	14.832367
1976.000000	14.884933
1977.000000	14.936233
1978.000000	14.999633
1979.000000	15.044100
1980.000000	15.115233
1981.000000	15.152800
1982.000000	15.208167
1983.000000	15.257067
1984.000000	15.324100
1985.000000	15.370367
1986.000000	15.420567
1987.000000	15.460700
1988.000000	15.511567
1989.000000	15.583500
1990.000000	15.627467
1991.000000	15.667567
1992.000000	15.718733
1993.000000	15.752033
1994.000000	15.791267
1995.000000	15.829300
1996.000000	15.878433
1997.000000	15.903367
1998.000000	15.931833
1999.000000	15.959367
2000.000000	15.994233
2001.000000	16.024933
2002.000000	16.041733
2003.000000	16.060067
2004.000000	16.080633
2005.000000	16.098433
2006.000000	16.118400
2007.000000	16.113733
2008.000000	16.120467
2009.000000	16.124833
2010.000000	16.132033
2011.000000	16.120700
2012.000000	16.114600
2013.000000	16.103933
2014.000000	16.084033
2015.000000	16.069733
2016.000000	16.046600
2017.000000	16.021167
2018.000000	16.000033
2019.000000	15.969467
2020.000000	15.946100
2021.000000	15.915700
2022.000000	15.864267
2023.000000	15.823400
2024.000000	15.784967
2025.000000	15.750533
2026.000000	15.696300
2027.000000	15.644467
2028.000000	15.598000
2029.000000	15.549800
2030.000000	15.503767
2031.000000	15.447100
2032.000000	15.375167
2033.000000	15.309500
2034.000000	15.240100
2035.000000	15.167600
2036.000000	15.114533
2037.000000	15.018033
2038.000000	14.930633
2039.000000	14.854267
2040.000000	14.768533
2041.000000	14.687467
2042.000000	14.600533
2043.000000	14.513967
2044.000000	14.415500
2045.000000	14.333733
2046.000000	14.254167
2047.000000	14.169067
2048.000000	14.093067
2049.000000	14.024300
2050.000000	13.957400
2051.000000	13.897633
2052.000000	13.850333
2053.000000	13.811000
2054.000000	13.777700
2055.000000	13.760133
2056.000000	13.745900
2057.000000	13.733467
2058.000000	13.737367
2059.000000	13.746533
2060.000000	13.754133
2061.000000	13.771133
2062.000000	13.786767
2063.000000	13.802067
2064.000000	13.826400
2065.000000	13.852467
2066.000000	13.874567
2067.000000	13.898533
2068.000000	13.933800
2069.000000	13.959033
2070.000000	13.985767
2071.000000	14.012767
2072.000000	14.031000
2073.000000	14.051600
2074.000000	14.078267
2075.000000	14.097133
2076.000000	14.113467
2077.000000	14.123267
2078.000000	14.140000
2079.000000	14.152500
2080.000000	14.163967
2081.000000	14.171233
2082.000000	14.179000
2083.000000	14.185200
2084.000000	14.174033
2085.000000	14.177033
2086.000000	14.179600
2087.000000	14.165867
2088.000000	14.163500
2089.000000	14.159700
2090.000000	14.146933
2091.000000	14.142333
2092.000000	14.137167
2093.000000	14.126867
2094.000000	14.115667
2095.000000	14.107633
2096.000000	14.104333
2097.000000	14.098600
2098.000000	14.088967
2099.000000	14.088000
2100.000000	14.083767
2101.000000	14.082400
2102.000000	14.083767
2103.000000	14.073933
2104.000000	14.080367
2105.000000	14.082367
2106.000000	14.077600
2107.000000	14.087667
2108.000000	14.084667
2109.000000	14.085433
2110.000000	14.094900
2111.000000	14.098433
2112.000000	14.110200
2113.000000	14.114433
2114.000000	14.110933
2115.000000	14.110167
2116.000000	14.109233
2117.000000	14.111967
2118.000000	14.124233
2119.000000	14.127500
2120.000000	14.120800
2121.000000	14.110233
2122.000000	14.107467
2123.000000	14.108200
2124.000000	14.110133
2125.000000	14.106133
2126.000000	14.092167
2127.000000	14.084300
2128.000000	14.072533
2129.000000	14.065500
2130.000000	14.053600
2131.000000	14.030067
2132.000000	14.018300
2133.000000	13.993700
2134.000000	13.975400
2135.000000	13.963200
2136.000000	13.936467
2137.000000	13.910700
2138.000000	13.875867
2139.000000	13.851467
2140.000000	13.819000
2141.000000	13.789933
2142.000000	13.757233
2143.000000	13.732567
2144.000000	13.704400
2145.000000	13.673333
2146.000000	13.640667
2147.000000	13.605067
2148.000000	13.575233
2149.000000	13.539933
2150.000000	13.513233
2151.000000	13.486400
2152.000000	13.459133
2153.000000	13.420967
2154.000000	13.391300
2155.000000	13.356033
2156.000000	13.336500
2157.000000	13.307767
2158.000000	13.273100
2159.000000	13.256200
2160.000000	13.232467
2161.000000	13.214533
2162.000000	13.195733
2163.000000	13.181533
2164.000000	13.179600
2165.000000	13.164933
2166.000000	13.139033
2167.000000	13.133867
2168.000000	13.121567
2169.000000	13.115367
2170.000000	13.113133
2171.000000	13.107033
2172.000000	13.112767
2173.000000	13.104833
2174.000000	13.099367
2175.000000	13.105833
2176.000000	13.114633
2177.000000	13.115000
2178.000000	13.129033
2179.000000	13.141767
2180.000000	13.150133
2181.000000	13.150267
2182.000000	13.165233
2183.000000	13.175833
2184.000000	13.188267
2185.000000	13.210567
2186.000000	13.219233
2187.000000	13.218167
2188.000000	13.233667
2189.000000	13.239333
2190.000000	13.256100
2191.000000	13.259333
2192.000000	13.270133
2193.000000	13.275833
2194.000000	13.286033
2195.000000	13.291733
2196.000000	13.308800
2197.000000	13.313300
2198.000000	13.325833
2199.000000	13.348267
2200.000000	13.357667
2201.000000	13.374600
2202.000000	13.391900
2203.000000	13.418367
2204.000000	13.430700
2205.000000	13.439867
2206.000000	13.465767
2207.000000	13.495500
2208.000000	13.509300
2209.000000	13.521867
2210.000000	13.547067
2211.000000	13.583000
2212.000000	13.605067
2213.000000	13.617700
2214.000000	13.648767
2215.000000	13.686767
2216.000000	13.714467
2217.000000	13.735433
2218.000000	13.764767
2219.000000	13.799200
2220.000000	13.816000
2221.000000	13.848067
2222.000000	13.868833
2223.000000	13.888933
2224.000000	13.908567
2225.000000	13.925867
2226.000000	13.931967
2227.000000	13.937833
2228.000000	13.944567
2229.000000	13.948233
2230.000000	13.956433
2231.000000	13.950867
2232.000000	13.940200
2233.000000	13.915867
2234.000000	13.896967
2235.000000	13.873833
2236.000000	13.846900
2237.000000	13.802933
2238.000000	13.765533
2239.000000	13.742833
2240.000000	13.679033
2241.000000	13.634500
2242.000000	13.580933
2243.000000	13.518767
2244.000000	13.444533
2245.000000	13.365500
2246.000000	13.291667
2247.000000	13.218200
2248.000000	13.121167
2249.000000	13.021833
2250.000000	12.941533
2251.000000	12.846900
2252.000000	12.752433
2253.000000	12.630933
2254.000000	12.525400
2255.000000	12.419433
2256.000000	12.309633
2257.000000	12.209200
2258.000000	12.091800
2259.000000	11.982167
2260.000000	11.891767
2261.000000	11.812733
2262.000000	11.716233
2263.000000	11.636867
2264.000000	11.556800
2265.000000	11.500233
2266.000000	11.443333
2267.000000	11.389733
2268.000000	11.351933
2269.000000	11.336000
2270.000000	11.310400
2271.000000	11.275300
2272.000000	11.260333
2273.000000	11.249833
2274.000000	11.255267
2275.000000	11.255700
2276.000000	11.240800
2277.000000	11.239300
2278.000000	11.260467
2279.000000	11.255467
2280.000000	11.259933
2281.000000	11.267000
2282.000000	11.273633
2283.000000	11.276700
2284.000000	11.263200
2285.000000	11.275567
2286.000000	11.279200
2287.000000	11.262900
2288.000000	11.240433
2289.000000	11.237800
2290.000000	11.247500
2291.000000	11.231800
2292.000000	11.221100
2293.000000	11.218300
2294.000000	11.201400
2295.000000	11.181233
2296.000000	11.164533
2297.000000	11.133367
2298.000000	11.117533
2299.000000	11.100667
2300.000000	11.092567
2301.000000	11.066767
2302.000000	11.056567
2303.000000	11.052667
2304.000000	11.039800
2305.000000	11.033100
2306.000000	11.014800
2307.000000	11.018233
2308.000000	11.025667
2309.000000	11.032700
2310.000000	11.033200
2311.000000	11.054867
2312.000000	11.063367
2313.000000	11.082267
2314.000000	11.108633
2315.000000	11.107833
2316.000000	11.128900
2317.000000	11.133400
2318.000000	11.154700
2319.000000	11.179167
2320.000000	11.194167
2321.000000	11.199133
2322.000000	11.199133
2323.000000	11.196800
2324.000000	11.197267
2325.000000	11.206133
2326.000000	11.216433
2327.000000	11.209600
2328.000000	11.213633
2329.000000	11.210367
2330.000000	11.201433
2331.000000	11.198467
2332.000000	11.218500
2333.000000	11.224000
2334.000000	11.217300
2335.000000	11.210733
2336.000000	11.216467
2337.000000	11.226233
2338.000000	11.233200
2339.000000	11.244400
2340.000000	11.252867
2341.000000	11.259167
2342.000000	11.264067
2343.000000	11.262267
2344.000000	11.265267
2345.000000	11.274667
2346.000000	11.269433
2347.000000	11.267967
2348.000000	11.282200
2349.000000	11.287667
2350.000000	11.290700
2351.000000	11.298267
2352.000000	11.304900
2353.000000	11.308433
2354.000000	11.324600
2355.000000	11.343100
2356.000000	11.351467
2357.000000	11.357333
2358.000000	11.369933
2359.000000	11.393200
2360.000000	11.409667
2361.000000	11.420533
2362.000000	11.432933
2363.000000	11.448833
2364.000000	11.465467
2365.000000	11.479600
2366.000000	11.497033
2367.000000	11.515100
2368.000000	11.528533
2369.000000	11.537267
2370.000000	11.554700
2371.000000	11.572000
2372.000000	11.584033
2373.000000	11.596300
2374.000000	11.610667
2375.000000	11.619833
2376.000000	11.636133
2377.000000	11.659600
2378.000000	11.669700
2379.000000	11.675533
2380.000000	11.692533
2381.000000	11.701200
2382.000000	11.703200
2383.000000	11.714200
2384.000000	11.725500
2385.000000	11.738833
2386.000000	11.750400
2387.000000	11.753500
2388.000000	11.749567
2389.000000	11.751267
2390.000000	11.756833
2391.000000	11.753433
2392.000000	11.750467
2393.000000	11.751500
2394.000000	11.755000
2395.000000	11.758700
2396.000000	11.755800
2397.000000	11.752200
2398.000000	11.738900
2399.000000	11.729300
2400.000000	11.728400
2401.000000	11.720533
2402.000000	11.713300
2403.000000	11.700400
2404.000000	11.696867
2405.000000	11.691300
2406.000000	11.671300
2407.000000	11.662433
2408.000000	11.640767
2409.000000	11.622800
2410.000000	11.615367
2411.000000	11.604967
2412.000000	11.592233
2413.000000	11.565633
2414.000000	11.546433
2415.000000	11.523533
2416.000000	11.516067
2417.000000	11.482433
2418.000000	11.440833
2419.000000	11.426033
2420.000000	11.411233
2421.000000	11.377267
2422.000000	11.356967
2423.000000	11.315933
2424.000000	11.277800
2425.000000	11.246067
2426.000000	11.217300
2427.000000	11.193200
2428.000000	11.145800
2429.000000	11.117333
2430.000000	11.076400
2431.000000	11.024000
2432.000000	10.961267
2433.000000	10.896667
2434.000000	10.840567
2435.000000	10.777567
2436.000000	10.726300
2437.000000	10.667067
2438.000000	10.615367
2439.000000	10.551233
2440.000000	10.492033
2441.000000	10.428967
2442.000000	10.364200
2443.000000	10.306767
2444.000000	10.250800
2445.000000	10.182767
2446.000000	10.121533
2447.000000	10.070467
2448.000000	9.997667
2449.000000	9.948600
2450.000000	9.877033
2451.000000	9.822400
2452.000000	9.767400
2453.000000	9.701300
2454.000000	9.645467
2455.000000	9.598733
2456.000000	9.546533
2457.000000	9.500233
2458.000000	9.421933
2459.000000	9.365800
2460.000000	9.320700
2461.000000	9.281433
2462.000000	9.218533
2463.000000	9.188533
2464.000000	9.156733
2465.000000	9.108367
2466.000000	9.072000
2467.000000	9.008800
2468.000000	8.981900
2469.000000	8.956500
2470.000000	8.943433
2471.000000	8.908700
2472.000000	8.896700
2473.000000	8.859933
2474.000000	8.869133
2475.000000	8.813700
2476.000000	8.794400
2477.000000	8.777167
2478.000000	8.771967
2479.000000	8.753567
2480.000000	8.756200
2481.000000	8.737633
2482.000000	8.730067
2483.000000	8.742667
2484.000000	8.710600
2485.000000	8.733167
2486.000000	8.694933
2487.000000	8.729933
2488.000000	8.750967
2489.000000	8.742200
2490.000000	8.736300
2491.000000	8.733767
2492.000000	8.730367
2493.000000	8.796467
2494.000000	8.797067
2495.000000	8.844633
2496.000000	8.831600
2497.000000	8.867100
2498.000000	8.896867
2499.000000	8.798667
2500.000000	8.829000
