PE UV       SUBTECH     SPECTRUM    ASCII       PEDS        4.00        
   -1
INBUCR0414-4.Sample.ASC
24/02/09
12:01:12.00
24/02/09
12:01:12.00
Vinicio Soto Monge
Chrysina optima. Det: A. Solís. COSTA RICA. Prov. Cartago, R. Grande de Orosi, desde Puente R. Dos Amigos hasta la Represa. 1400-1800m. NOV 1997. R. Delgado. Trampa de Luz. L_N_186600_562000 #48891. INBIOCRI002596554. Falta élitro izquierdo. 
250,000000
1
Lambda 1050
1050L1511233
PerkinElmer UV WinLab 6.3.2.0749 / 2.02.05 Lambda 900 UV/VIS/NIR, Aug  7 2015 09:38:08

0
0
3350/servo 860,8/2
0
0
UV/VIS
1
1
1
DoubleDePol,CommonBeamDepol,RBeamAtt,SBeamAtt,60mm sphere, WB InGaAs Detector
0
0
0
0
Program
Program
3350/servo 860,8/2
3350/0,2 860,8/0,2
3350/0,2 860,8/0,2
0
15.00
 
 
 
0
 
860,8
319,2
860,8
Front
100
on
S:100 R:100
0
0
0
0
 
0
 
 
 
0
 
 
0
0
0
0
0
 
 
 
 
0
0


0
0
#HDR
-1
-1
#GR
nm
%R
1.0
0.0
2500,000000
-1,000000
2251
8
21,126600
1,122700
#DATA

250.000000	nan
251.000000	nan
252.000000	nan
253.000000	nan
254.000000	nan
255.000000	nan
256.000000	nan
257.000000	nan
258.000000	nan
259.000000	4.269589
260.000000	4.268156
261.000000	4.265398
262.000000	4.262541
263.000000	4.260673
264.000000	4.259274
265.000000	4.257504
266.000000	4.254619
267.000000	4.250828
268.000000	4.248333
269.000000	4.245570
270.000000	4.241512
271.000000	4.237711
272.000000	4.236608
273.000000	4.234011
274.000000	4.230355
275.000000	4.226975
276.000000	4.225164
277.000000	4.221435
278.000000	4.219470
279.000000	4.216932
280.000000	4.213913
281.000000	4.212836
282.000000	4.210222
283.000000	4.208622
284.000000	4.206944
285.000000	4.206672
286.000000	4.204568
287.000000	4.205139
288.000000	4.204016
289.000000	4.203665
290.000000	4.204895
291.000000	4.203415
292.000000	4.201206
293.000000	4.199360
294.000000	4.200882
295.000000	4.197629
296.000000	4.197006
297.000000	4.192867
298.000000	4.189090
299.000000	4.185755
300.000000	4.182622
301.000000	4.181373
302.000000	4.180788
303.000000	4.179040
304.000000	4.174046
305.000000	4.173781
306.000000	4.173438
307.000000	4.174625
308.000000	4.175391
309.000000	4.210689
310.000000	4.242346
311.000000	4.274935
312.000000	4.307247
313.000000	4.340842
314.000000	4.373358
315.000000	4.405297
316.000000	4.440816
317.000000	4.543113
318.000000	4.680107
319.000000	4.783769
320.000000	4.883513
321.000000	4.979198
322.000000	5.080882
323.000000	5.159758
324.000000	5.254573
325.000000	5.334274
326.000000	5.405413
327.000000	5.419923
328.000000	5.400966
329.000000	5.374936
330.000000	5.362488
331.000000	5.346069
332.000000	5.320841
333.000000	5.323426
334.000000	5.313154
335.000000	5.354470
336.000000	5.393475
337.000000	5.418902
338.000000	5.440865
339.000000	5.468782
340.000000	5.489590
341.000000	5.518746
342.000000	5.545490
343.000000	5.568854
344.000000	5.592007
345.000000	5.575992
346.000000	5.571244
347.000000	5.568159
348.000000	5.570583
349.000000	5.571773
350.000000	5.570389
351.000000	5.562927
352.000000	5.560177
353.000000	5.555695
354.000000	5.551331
355.000000	5.552935
356.000000	5.547415
357.000000	5.545145
358.000000	5.541053
359.000000	5.538741
360.000000	5.533347
361.000000	5.532619
362.000000	5.530062
363.000000	5.531421
364.000000	5.528580
365.000000	5.521245
366.000000	5.516400
367.000000	5.508955
368.000000	5.495840
369.000000	5.487247
370.000000	5.479639
371.000000	5.468557
372.000000	5.460475
373.000000	5.442375
374.000000	5.420907
375.000000	5.403289
376.000000	5.398598
377.000000	5.357377
378.000000	5.320079
379.000000	5.277404
380.000000	5.239644
381.000000	5.205721
382.000000	5.171071
383.000000	5.142302
384.000000	5.120148
385.000000	5.096879
386.000000	5.060174
387.000000	5.061094
388.000000	5.062995
389.000000	5.064785
390.000000	5.066075
391.000000	5.067351
392.000000	5.068833
393.000000	5.069822
394.000000	5.070725
395.000000	5.071034
396.000000	5.104267
397.000000	5.137206
398.000000	5.169933
399.000000	5.202614
400.000000	5.235197
401.000000	5.267623
402.000000	5.300051
403.000000	5.333220
404.000000	5.365926
405.000000	5.398471
406.000000	5.398668
407.000000	5.398958
408.000000	5.399001
409.000000	5.399206
410.000000	5.399619
411.000000	5.400253
412.000000	5.400719
413.000000	5.400956
414.000000	5.401426
415.000000	5.401833
416.000000	5.402016
417.000000	5.402506
418.000000	5.403014
419.000000	5.403333
420.000000	5.403858
421.000000	5.404367
422.000000	5.404846
423.000000	5.405344
424.000000	5.405904
425.000000	5.406594
426.000000	5.407109
427.000000	5.440568
428.000000	5.474054
429.000000	5.507738
430.000000	5.541617
431.000000	5.575351
432.000000	5.609323
433.000000	5.643407
434.000000	5.677478
435.000000	5.711445
436.000000	5.745592
437.000000	5.746724
438.000000	5.747839
439.000000	5.748933
440.000000	5.749932
441.000000	5.751108
442.000000	5.751891
443.000000	5.752329
444.000000	5.752848
445.000000	5.753483
446.000000	5.754288
447.000000	5.755178
448.000000	5.756038
449.000000	5.756965
450.000000	5.757762
451.000000	5.758251
452.000000	5.759053
453.000000	5.760153
454.000000	5.761219
455.000000	5.762408
456.000000	5.763408
457.000000	5.764300
458.000000	5.765378
459.000000	5.766533
460.000000	5.767823
461.000000	5.769498
462.000000	5.771325
463.000000	5.773086
464.000000	5.775105
465.000000	5.777109
466.000000	5.779255
467.000000	5.781454
468.000000	5.783584
469.000000	5.785687
470.000000	5.787798
471.000000	5.789639
472.000000	5.791209
473.000000	5.792955
474.000000	5.794487
475.000000	5.795866
476.000000	5.797052
477.000000	5.798181
478.000000	5.799193
479.000000	5.799988
480.000000	5.800177
481.000000	5.800015
482.000000	5.799522
483.000000	5.798774
484.000000	5.798423
485.000000	5.831435
486.000000	5.864898
487.000000	5.898806
488.000000	5.933379
489.000000	5.968649
490.000000	6.005023
491.000000	6.042524
492.000000	6.080941
493.000000	6.120245
494.000000	6.159973
495.000000	6.167015
496.000000	6.174426
497.000000	6.182291
498.000000	6.190419
499.000000	6.198924
500.000000	6.207608
501.000000	6.216355
502.000000	6.225539
503.000000	6.267872
504.000000	6.310580
505.000000	6.353855
506.000000	6.397406
507.000000	6.441385
508.000000	6.485869
509.000000	6.530890
510.000000	6.576705
511.000000	6.623538
512.000000	6.671439
513.000000	6.720340
514.000000	6.770414
515.000000	6.821867
516.000000	6.875392
517.000000	6.930894
518.000000	6.988940
519.000000	7.049858
520.000000	7.114599
521.000000	7.183523
522.000000	7.290273
523.000000	7.370295
524.000000	7.457529
525.000000	7.553158
526.000000	7.658088
527.000000	7.774184
528.000000	7.903165
529.000000	8.047040
530.000000	8.207235
531.000000	8.386071
532.000000	8.552072
533.000000	8.771639
534.000000	9.012871
535.000000	9.275586
536.000000	9.559024
537.000000	9.861295
538.000000	10.179888
539.000000	10.511821
540.000000	10.852877
541.000000	11.198139
542.000000	11.542866
543.000000	11.849409
544.000000	12.146246
545.000000	12.428755
546.000000	12.693651
547.000000	12.938197
548.000000	13.161161
549.000000	13.361691
550.000000	13.540024
551.000000	13.696272
552.000000	13.832455
553.000000	13.950153
554.000000	14.050641
555.000000	14.136586
556.000000	14.209840
557.000000	14.274036
558.000000	14.328863
559.000000	14.375452
560.000000	14.398965
561.000000	14.414347
562.000000	14.424622
563.000000	14.431133
564.000000	14.434489
565.000000	14.435119
566.000000	14.433503
567.000000	14.429229
568.000000	14.423168
569.000000	14.416387
570.000000	14.424728
571.000000	14.435790
572.000000	14.446978
573.000000	14.457331
574.000000	14.466966
575.000000	14.476500
576.000000	14.486304
577.000000	14.495373
578.000000	14.505300
579.000000	14.515597
580.000000	14.525994
581.000000	14.536849
582.000000	14.546538
583.000000	14.556628
584.000000	14.567168
585.000000	14.577847
586.000000	14.588051
587.000000	14.598408
588.000000	14.607230
589.000000	14.615951
590.000000	14.624582
591.000000	14.632572
592.000000	14.640392
593.000000	14.647661
594.000000	14.654260
595.000000	14.659937
596.000000	14.665131
597.000000	14.670094
598.000000	14.675117
599.000000	14.678701
600.000000	14.681602
601.000000	14.683137
602.000000	14.683482
603.000000	14.682779
604.000000	14.679243
605.000000	14.672692
606.000000	14.663174
607.000000	14.650213
608.000000	14.632844
609.000000	14.609821
610.000000	14.580068
611.000000	14.542884
612.000000	14.497272
613.000000	14.442338
614.000000	14.378424
615.000000	14.307276
616.000000	14.228680
617.000000	14.145375
618.000000	14.061803
619.000000	13.982499
620.000000	13.912264
621.000000	13.855258
622.000000	13.817062
623.000000	13.798808
624.000000	13.802779
625.000000	13.826618
626.000000	13.870087
627.000000	13.928773
628.000000	13.997791
629.000000	14.071928
630.000000	14.145291
631.000000	14.212571
632.000000	14.269253
633.000000	14.311937
634.000000	14.371195
635.000000	14.413790
636.000000	14.438253
637.000000	14.444904
638.000000	14.434847
639.000000	14.408869
640.000000	14.369546
641.000000	14.318916
642.000000	14.259025
643.000000	14.196048
644.000000	14.100945
645.000000	14.011807
646.000000	13.935359
647.000000	13.875702
648.000000	13.836571
649.000000	13.820365
650.000000	13.827531
651.000000	13.858929
652.000000	13.912102
653.000000	13.982421
654.000000	14.065888
655.000000	14.155789
656.000000	14.246517
657.000000	14.333109
658.000000	14.410248
659.000000	14.474142
660.000000	14.522433
661.000000	14.552531
662.000000	14.565276
663.000000	14.559567
664.000000	14.536376
665.000000	14.531649
666.000000	14.513168
667.000000	14.484918
668.000000	14.449595
669.000000	14.410111
670.000000	14.371676
671.000000	14.338796
672.000000	14.314736
673.000000	14.303631
674.000000	14.309619
675.000000	14.301778
676.000000	14.314503
677.000000	14.346232
678.000000	14.396949
679.000000	14.464730
680.000000	14.546999
681.000000	14.638073
682.000000	14.732751
683.000000	14.829457
684.000000	14.922879
685.000000	15.009392
686.000000	15.086057
687.000000	15.151102
688.000000	15.204580
689.000000	15.247043
690.000000	15.277106
691.000000	15.297927
692.000000	15.310830
693.000000	15.316401
694.000000	15.350468
695.000000	15.382417
696.000000	15.414840
697.000000	15.449956
698.000000	15.489106
699.000000	15.533560
700.000000	15.585574
701.000000	15.646347
702.000000	15.717326
703.000000	15.798923
704.000000	15.856912
705.000000	15.923276
706.000000	15.996970
707.000000	16.076376
708.000000	16.159095
709.000000	16.244669
710.000000	16.329400
711.000000	16.411383
712.000000	16.488404
713.000000	16.558603
714.000000	16.622784
715.000000	16.680217
716.000000	16.731006
717.000000	16.775564
718.000000	16.814108
719.000000	16.846516
720.000000	16.874540
721.000000	16.898142
722.000000	16.919402
723.000000	16.939976
724.000000	16.958406
725.000000	16.976379
726.000000	17.027316
727.000000	17.077539
728.000000	17.128438
729.000000	17.180542
730.000000	17.233506
731.000000	17.287289
732.000000	17.342481
733.000000	17.398492
734.000000	17.456015
735.000000	17.513917
736.000000	17.538480
737.000000	17.563667
738.000000	17.588146
739.000000	17.611274
740.000000	17.634430
741.000000	17.659073
742.000000	17.682804
743.000000	17.704565
744.000000	17.724426
745.000000	17.742749
746.000000	17.759994
747.000000	17.775553
748.000000	17.791221
749.000000	17.806991
750.000000	17.821097
751.000000	17.833091
752.000000	17.845365
753.000000	17.891216
754.000000	17.937144
755.000000	17.984280
756.000000	18.032949
757.000000	18.083205
758.000000	18.133530
759.000000	18.184059
760.000000	18.236151
761.000000	18.289927
762.000000	18.344607
763.000000	18.367886
764.000000	18.392483
765.000000	18.417163
766.000000	18.440702
767.000000	18.464043
768.000000	18.487907
769.000000	18.511312
770.000000	18.534635
771.000000	18.556402
772.000000	18.576893
773.000000	18.597897
774.000000	18.618273
775.000000	18.637136
776.000000	18.657142
777.000000	18.677516
778.000000	18.730931
779.000000	18.785718
780.000000	18.840090
781.000000	18.896003
782.000000	18.952742
783.000000	19.007885
784.000000	19.063762
785.000000	19.120777
786.000000	19.179073
787.000000	19.237785
788.000000	19.264289
789.000000	19.293309
790.000000	19.321248
791.000000	19.349479
792.000000	19.377205
793.000000	19.405380
794.000000	19.432903
795.000000	19.460608
796.000000	19.488309
797.000000	19.515362
798.000000	19.541635
799.000000	19.564852
800.000000	19.622964
801.000000	19.680481
802.000000	19.736340
803.000000	19.791337
804.000000	19.847635
805.000000	19.904218
806.000000	19.959205
807.000000	20.016546
808.000000	20.074225
809.000000	20.134300
810.000000	20.162887
811.000000	20.189148
812.000000	20.218500
813.000000	20.248894
814.000000	20.277169
815.000000	20.304291
816.000000	20.330447
817.000000	20.357593
818.000000	20.383046
819.000000	20.405784
820.000000	20.424632
821.000000	20.445157
822.000000	20.497019
823.000000	20.545387
824.000000	20.594878
825.000000	20.646892
826.000000	20.697834
827.000000	20.746497
828.000000	20.796728
829.000000	20.845683
830.000000	20.897376
831.000000	20.947578
832.000000	20.964279
833.000000	20.981358
834.000000	20.995715
835.000000	21.008413
836.000000	21.019909
837.000000	21.032268
838.000000	21.039385
839.000000	21.047926
840.000000	21.053324
841.000000	21.059739
842.000000	21.066505
843.000000	21.070432
844.000000	21.075032
845.000000	21.079541
846.000000	21.084214
847.000000	21.083593
848.000000	21.079789
849.000000	21.075971
850.000000	21.082159
851.000000	21.079876
852.000000	21.063561
853.000000	21.054606
854.000000	21.081447
855.000000	21.066862
856.000000	21.068367
857.000000	21.133255
858.000000	21.500696
859.000000	21.595606
860.000000	21.711632
861.000000	21.815316
862.000000	21.963239
863.000000	22.088247
864.000000	22.157502
865.000000	22.245702
866.000000	22.347307
867.000000	22.390583
868.000000	22.116553
869.000000	22.114505
870.000000	22.084488
871.000000	22.101063
872.000000	22.063695
873.000000	22.071967
874.000000	22.077777
875.000000	22.106380
876.000000	22.109997
877.000000	22.111378
878.000000	22.111450
879.000000	22.110900
880.000000	22.109060
881.000000	22.107405
882.000000	22.129580
883.000000	22.101675
884.000000	22.096858
885.000000	22.090308
886.000000	22.080578
887.000000	22.072035
888.000000	22.085410
889.000000	22.097925
890.000000	22.110595
891.000000	22.069875
892.000000	22.028500
893.000000	22.010620
894.000000	21.991640
895.000000	21.972785
896.000000	21.952627
897.000000	21.930190
898.000000	21.905323
899.000000	21.880370
900.000000	21.855107
901.000000	21.830683
902.000000	21.803767
903.000000	21.773090
904.000000	21.767148
905.000000	21.759255
906.000000	21.727075
907.000000	21.694427
908.000000	21.663833
909.000000	21.633970
910.000000	21.599405
911.000000	21.587110
912.000000	21.576293
913.000000	21.567698
914.000000	21.533225
915.000000	21.497775
916.000000	21.485747
917.000000	21.473212
918.000000	21.458940
919.000000	21.443685
920.000000	21.428103
921.000000	21.413390
922.000000	21.396730
923.000000	21.353735
924.000000	21.310230
925.000000	21.267905
926.000000	21.224285
927.000000	21.178497
928.000000	21.157585
929.000000	21.109410
930.000000	21.061692
931.000000	21.014210
932.000000	20.990620
933.000000	20.968753
934.000000	20.947772
935.000000	20.926718
936.000000	20.907087
937.000000	20.889625
938.000000	20.846700
939.000000	20.829100
940.000000	20.812257
941.000000	20.793642
942.000000	20.751637
943.000000	20.734227
944.000000	20.716200
945.000000	20.698190
946.000000	20.680810
947.000000	20.663025
948.000000	20.646730
949.000000	20.632618
950.000000	20.617642
951.000000	20.606833
952.000000	20.597485
953.000000	20.587382
954.000000	20.579632
955.000000	20.571742
956.000000	20.562648
957.000000	20.553920
958.000000	20.545883
959.000000	20.537835
960.000000	20.532488
961.000000	20.525923
962.000000	20.519047
963.000000	20.513390
964.000000	20.506702
965.000000	20.500432
966.000000	20.495673
967.000000	20.490690
968.000000	20.486175
969.000000	20.481042
970.000000	20.476622
971.000000	20.472047
972.000000	20.468268
973.000000	20.464512
974.000000	20.461420
975.000000	20.458655
976.000000	20.456010
977.000000	20.454880
978.000000	20.453815
979.000000	20.453073
980.000000	20.451852
981.000000	20.452648
982.000000	20.453228
983.000000	20.453618
984.000000	20.453720
985.000000	20.454695
986.000000	20.456920
987.000000	20.458960
988.000000	20.460435
989.000000	20.462045
990.000000	20.463865
991.000000	20.464590
992.000000	20.465685
993.000000	20.467278
994.000000	20.469357
995.000000	20.471215
996.000000	20.471655
997.000000	20.472040
998.000000	20.473510
999.000000	20.475460
1000.000000	20.477213
1001.000000	20.479095
1002.000000	20.480303
1003.000000	20.481857
1004.000000	20.483358
1005.000000	20.485600
1006.000000	20.488557
1007.000000	20.491810
1008.000000	20.493975
1009.000000	20.495897
1010.000000	20.498310
1011.000000	20.500360
1012.000000	20.502770
1013.000000	20.505295
1014.000000	20.507925
1015.000000	20.509593
1016.000000	20.511155
1017.000000	20.513507
1018.000000	20.517832
1019.000000	20.523110
1020.000000	20.528782
1021.000000	20.535280
1022.000000	20.542253
1023.000000	20.549610
1024.000000	20.556783
1025.000000	20.564400
1026.000000	20.572195
1027.000000	20.578922
1028.000000	20.584895
1029.000000	20.591105
1030.000000	20.598038
1031.000000	20.604660
1032.000000	20.610112
1033.000000	20.615118
1034.000000	20.620480
1035.000000	20.625608
1036.000000	20.630845
1037.000000	20.636942
1038.000000	20.643073
1039.000000	20.648610
1040.000000	20.653495
1041.000000	20.658677
1042.000000	20.665073
1043.000000	20.671823
1044.000000	20.678265
1045.000000	20.684875
1046.000000	20.691885
1047.000000	20.697548
1048.000000	20.702765
1049.000000	20.708650
1050.000000	20.714453
1051.000000	20.720063
1052.000000	20.725125
1053.000000	20.730013
1054.000000	20.735692
1055.000000	20.741530
1056.000000	20.746525
1057.000000	20.752372
1058.000000	20.759283
1059.000000	20.765525
1060.000000	20.771515
1061.000000	20.777995
1062.000000	20.784728
1063.000000	20.792048
1064.000000	20.798715
1065.000000	20.804493
1066.000000	20.811327
1067.000000	20.818428
1068.000000	20.824530
1069.000000	20.831242
1070.000000	20.838790
1071.000000	20.846533
1072.000000	20.853983
1073.000000	20.860958
1074.000000	20.867448
1075.000000	20.875397
1076.000000	20.882893
1077.000000	20.890410
1078.000000	20.898003
1079.000000	20.904605
1080.000000	20.909510
1081.000000	20.913877
1082.000000	20.918820
1083.000000	20.924475
1084.000000	20.930470
1085.000000	20.936070
1086.000000	20.941305
1087.000000	20.945918
1088.000000	20.951115
1089.000000	20.956582
1090.000000	20.963330
1091.000000	20.969403
1092.000000	20.974355
1093.000000	20.978065
1094.000000	20.982145
1095.000000	20.986187
1096.000000	20.990240
1097.000000	20.993833
1098.000000	20.997195
1099.000000	21.001385
1100.000000	21.004372
1101.000000	21.008167
1102.000000	21.012182
1103.000000	21.015880
1104.000000	21.019385
1105.000000	21.022095
1106.000000	21.024345
1107.000000	21.027063
1108.000000	21.028785
1109.000000	21.029043
1110.000000	21.029882
1111.000000	21.030268
1112.000000	21.030595
1113.000000	21.031595
1114.000000	21.031713
1115.000000	21.032295
1116.000000	21.033720
1117.000000	21.034630
1118.000000	21.034855
1119.000000	21.034727
1120.000000	21.033963
1121.000000	21.033110
1122.000000	21.032647
1123.000000	21.031398
1124.000000	21.030628
1125.000000	21.028335
1126.000000	21.025505
1127.000000	21.020478
1128.000000	21.016245
1129.000000	21.011715
1130.000000	21.005827
1131.000000	20.996272
1132.000000	20.981977
1133.000000	20.968538
1134.000000	20.955752
1135.000000	20.946115
1136.000000	20.932600
1137.000000	20.919187
1138.000000	20.904205
1139.000000	20.888172
1140.000000	20.872208
1141.000000	20.857955
1142.000000	20.847175
1143.000000	20.834855
1144.000000	20.821148
1145.000000	20.806087
1146.000000	20.795455
1147.000000	20.785068
1148.000000	20.776048
1149.000000	20.766547
1150.000000	20.758280
1151.000000	20.751075
1152.000000	20.743023
1153.000000	20.710897
1154.000000	20.677257
1155.000000	20.641138
1156.000000	20.602525
1157.000000	20.564195
1158.000000	20.523103
1159.000000	20.482495
1160.000000	20.438980
1161.000000	20.392833
1162.000000	20.345002
1163.000000	20.319690
1164.000000	20.294435
1165.000000	20.267935
1166.000000	20.240677
1167.000000	20.211877
1168.000000	20.185425
1169.000000	20.158508
1170.000000	20.133727
1171.000000	20.110470
1172.000000	20.088997
1173.000000	20.069115
1174.000000	20.049595
1175.000000	20.032187
1176.000000	20.017115
1177.000000	20.004117
1178.000000	19.990687
1179.000000	19.978613
1180.000000	19.967115
1181.000000	19.958482
1182.000000	19.950008
1183.000000	19.941690
1184.000000	19.934477
1185.000000	19.928617
1186.000000	19.923188
1187.000000	19.920032
1188.000000	19.917585
1189.000000	19.918030
1190.000000	19.919210
1191.000000	19.921125
1192.000000	19.925307
1193.000000	19.932540
1194.000000	19.940662
1195.000000	19.949537
1196.000000	19.959148
1197.000000	19.968048
1198.000000	19.979017
1199.000000	19.988098
1200.000000	19.999317
1201.000000	20.008880
1202.000000	20.018642
1203.000000	20.027550
1204.000000	20.037208
1205.000000	20.046373
1206.000000	20.056312
1207.000000	20.066443
1208.000000	20.075630
1209.000000	20.085400
1210.000000	20.094033
1211.000000	20.103460
1212.000000	20.112258
1213.000000	20.121045
1214.000000	20.129677
1215.000000	20.138115
1216.000000	20.144102
1217.000000	20.150858
1218.000000	20.156912
1219.000000	20.163090
1220.000000	20.168277
1221.000000	20.172235
1222.000000	20.175493
1223.000000	20.178115
1224.000000	20.179503
1225.000000	20.180600
1226.000000	20.181567
1227.000000	20.180665
1228.000000	20.179193
1229.000000	20.178048
1230.000000	20.177242
1231.000000	20.176330
1232.000000	20.176062
1233.000000	20.175710
1234.000000	20.174865
1235.000000	20.173898
1236.000000	20.173803
1237.000000	20.174505
1238.000000	20.175442
1239.000000	20.176478
1240.000000	20.177493
1241.000000	20.179945
1242.000000	20.182530
1243.000000	20.184470
1244.000000	20.188088
1245.000000	20.193098
1246.000000	20.198853
1247.000000	20.204735
1248.000000	20.237452
1249.000000	20.270705
1250.000000	20.304745
1251.000000	20.338060
1252.000000	20.371905
1253.000000	20.405840
1254.000000	20.439465
1255.000000	20.473180
1256.000000	20.507185
1257.000000	20.540925
1258.000000	20.548977
1259.000000	20.555702
1260.000000	20.561298
1261.000000	20.566895
1262.000000	20.572020
1263.000000	20.577695
1264.000000	20.583405
1265.000000	20.587862
1266.000000	20.591052
1267.000000	20.594090
1268.000000	20.596950
1269.000000	20.600203
1270.000000	20.602933
1271.000000	20.603977
1272.000000	20.604645
1273.000000	20.604925
1274.000000	20.605270
1275.000000	20.606590
1276.000000	20.607998
1277.000000	20.608863
1278.000000	20.608890
1279.000000	20.608348
1280.000000	20.609208
1281.000000	20.611728
1282.000000	20.614587
1283.000000	20.617425
1284.000000	20.620578
1285.000000	20.623060
1286.000000	20.625633
1287.000000	20.629530
1288.000000	20.633862
1289.000000	20.638385
1290.000000	20.642320
1291.000000	20.647095
1292.000000	20.653102
1293.000000	20.659895
1294.000000	20.665395
1295.000000	20.670685
1296.000000	20.676713
1297.000000	20.682403
1298.000000	20.688557
1299.000000	20.694380
1300.000000	20.700430
1301.000000	20.705707
1302.000000	20.708985
1303.000000	20.711582
1304.000000	20.714002
1305.000000	20.715593
1306.000000	20.716070
1307.000000	20.715058
1308.000000	20.712917
1309.000000	20.710820
1310.000000	20.706898
1311.000000	20.701770
1312.000000	20.696618
1313.000000	20.665625
1314.000000	20.634405
1315.000000	20.603198
1316.000000	20.571438
1317.000000	20.539560
1318.000000	20.506640
1319.000000	20.472037
1320.000000	20.437392
1321.000000	20.402513
1322.000000	20.366148
1323.000000	20.353997
1324.000000	20.341860
1325.000000	20.328525
1326.000000	20.314395
1327.000000	20.300115
1328.000000	20.285618
1329.000000	20.271113
1330.000000	20.256143
1331.000000	20.239888
1332.000000	20.223170
1333.000000	20.206183
1334.000000	20.188830
1335.000000	20.170770
1336.000000	20.152420
1337.000000	20.132275
1338.000000	20.111027
1339.000000	20.088552
1340.000000	20.064687
1341.000000	20.038662
1342.000000	20.012048
1343.000000	19.958850
1344.000000	19.903425
1345.000000	19.846538
1346.000000	19.787835
1347.000000	19.729922
1348.000000	19.671672
1349.000000	19.610420
1350.000000	19.547023
1351.000000	19.482785
1352.000000	19.416945
1353.000000	19.376415
1354.000000	19.339950
1355.000000	19.307310
1356.000000	19.275955
1357.000000	19.243010
1358.000000	19.209355
1359.000000	19.176710
1360.000000	19.150195
1361.000000	19.136655
1362.000000	19.125628
1363.000000	19.086870
1364.000000	19.045295
1365.000000	19.000965
1366.000000	18.953122
1367.000000	18.907493
1368.000000	18.862272
1369.000000	18.813508
1370.000000	18.758165
1371.000000	18.665680
1372.000000	18.564975
1373.000000	18.482775
1374.000000	18.390485
1375.000000	18.289517
1376.000000	18.180907
1377.000000	18.061687
1378.000000	17.905262
1379.000000	17.746755
1380.000000	17.586343
1381.000000	17.455800
1382.000000	17.333813
1383.000000	17.223435
1384.000000	17.121192
1385.000000	17.025950
1386.000000	16.940120
1387.000000	16.867782
1388.000000	16.838137
1389.000000	16.815515
1390.000000	16.794485
1391.000000	16.749363
1392.000000	16.705385
1393.000000	16.659222
1394.000000	16.614227
1395.000000	16.580465
1396.000000	16.550625
1397.000000	16.509610
1398.000000	16.458127
1399.000000	16.410683
1400.000000	16.376885
1401.000000	16.360193
1402.000000	16.332200
1403.000000	16.298805
1404.000000	16.267363
1405.000000	16.224038
1406.000000	16.174385
1407.000000	16.128508
1408.000000	16.087543
1409.000000	16.040903
1410.000000	15.979645
1411.000000	15.914060
1412.000000	15.852832
1413.000000	15.796410
1414.000000	15.737655
1415.000000	15.652645
1416.000000	15.565723
1417.000000	15.479220
1418.000000	15.393638
1419.000000	15.310885
1420.000000	15.229055
1421.000000	15.151525
1422.000000	15.075823
1423.000000	15.001428
1424.000000	14.926410
1425.000000	14.876990
1426.000000	14.832045
1427.000000	14.790168
1428.000000	14.748130
1429.000000	14.704475
1430.000000	14.663068
1431.000000	14.625863
1432.000000	14.592757
1433.000000	14.559800
1434.000000	14.526920
1435.000000	14.495747
1436.000000	14.467195
1437.000000	14.438600
1438.000000	14.412807
1439.000000	14.387363
1440.000000	14.363653
1441.000000	14.340407
1442.000000	14.315230
1443.000000	14.289810
1444.000000	14.266313
1445.000000	14.222178
1446.000000	14.178667
1447.000000	14.134342
1448.000000	14.086975
1449.000000	14.041385
1450.000000	13.998455
1451.000000	13.956230
1452.000000	13.913610
1453.000000	13.870802
1454.000000	13.828872
1455.000000	13.809677
1456.000000	13.788675
1457.000000	13.768935
1458.000000	13.749940
1459.000000	13.730385
1460.000000	13.709580
1461.000000	13.686040
1462.000000	13.665150
1463.000000	13.643835
1464.000000	13.621518
1465.000000	13.600258
1466.000000	13.579765
1467.000000	13.558083
1468.000000	13.536638
1469.000000	13.515363
1470.000000	13.493912
1471.000000	13.474935
1472.000000	13.455048
1473.000000	13.435670
1474.000000	13.415345
1475.000000	13.395425
1476.000000	13.376718
1477.000000	13.359872
1478.000000	13.344460
1479.000000	13.330035
1480.000000	13.316570
1481.000000	13.303825
1482.000000	13.292818
1483.000000	13.282663
1484.000000	13.274703
1485.000000	13.266178
1486.000000	13.258105
1487.000000	13.251137
1488.000000	13.244502
1489.000000	13.239093
1490.000000	13.234345
1491.000000	13.229955
1492.000000	13.225315
1493.000000	13.221790
1494.000000	13.219092
1495.000000	13.217570
1496.000000	13.217130
1497.000000	13.218425
1498.000000	13.221042
1499.000000	13.224922
1500.000000	13.230042
1501.000000	13.236190
1502.000000	13.244250
1503.000000	13.255112
1504.000000	13.267975
1505.000000	13.282217
1506.000000	13.298250
1507.000000	13.314773
1508.000000	13.332620
1509.000000	13.351615
1510.000000	13.369852
1511.000000	13.389840
1512.000000	13.410287
1513.000000	13.430027
1514.000000	13.450740
1515.000000	13.472082
1516.000000	13.492572
1517.000000	13.512560
1518.000000	13.532300
1519.000000	13.551950
1520.000000	13.571385
1521.000000	13.590620
1522.000000	13.610560
1523.000000	13.630505
1524.000000	13.649530
1525.000000	13.668062
1526.000000	13.686225
1527.000000	13.704400
1528.000000	13.721947
1529.000000	13.738917
1530.000000	13.756612
1531.000000	13.773855
1532.000000	13.789660
1533.000000	13.805087
1534.000000	13.819432
1535.000000	13.858385
1536.000000	13.897043
1537.000000	13.935745
1538.000000	13.974808
1539.000000	14.012785
1540.000000	14.048972
1541.000000	14.084600
1542.000000	14.119772
1543.000000	14.153967
1544.000000	14.187990
1545.000000	14.197230
1546.000000	14.207587
1547.000000	14.218260
1548.000000	14.228547
1549.000000	14.240002
1550.000000	14.253728
1551.000000	14.267817
1552.000000	14.283013
1553.000000	14.299090
1554.000000	14.315283
1555.000000	14.330792
1556.000000	14.345405
1557.000000	14.359037
1558.000000	14.370890
1559.000000	14.381138
1560.000000	14.389345
1561.000000	14.396615
1562.000000	14.402005
1563.000000	14.405510
1564.000000	14.407303
1565.000000	14.408060
1566.000000	14.407497
1567.000000	14.405450
1568.000000	14.402955
1569.000000	14.400220
1570.000000	14.397173
1571.000000	14.392842
1572.000000	14.388590
1573.000000	14.385945
1574.000000	14.384877
1575.000000	14.383858
1576.000000	14.382502
1577.000000	14.382507
1578.000000	14.383820
1579.000000	14.385503
1580.000000	14.387960
1581.000000	14.391858
1582.000000	14.397447
1583.000000	14.403072
1584.000000	14.408933
1585.000000	14.416062
1586.000000	14.424960
1587.000000	14.434873
1588.000000	14.444772
1589.000000	14.455118
1590.000000	14.465713
1591.000000	14.477123
1592.000000	14.488848
1593.000000	14.500258
1594.000000	14.512287
1595.000000	14.524625
1596.000000	14.537222
1597.000000	14.549925
1598.000000	14.563467
1599.000000	14.578195
1600.000000	14.593865
1601.000000	14.609510
1602.000000	14.624435
1603.000000	14.640900
1604.000000	14.658025
1605.000000	14.675372
1606.000000	14.692263
1607.000000	14.709370
1608.000000	14.727585
1609.000000	14.745202
1610.000000	14.761798
1611.000000	14.777977
1612.000000	14.793960
1613.000000	14.808835
1614.000000	14.822332
1615.000000	14.835078
1616.000000	14.847227
1617.000000	14.858915
1618.000000	14.869752
1619.000000	14.879720
1620.000000	14.888330
1621.000000	14.921415
1622.000000	14.954823
1623.000000	14.987685
1624.000000	15.020803
1625.000000	15.054365
1626.000000	15.088137
1627.000000	15.120780
1628.000000	15.128543
1629.000000	15.162142
1630.000000	15.196278
1631.000000	15.204917
1632.000000	15.213587
1633.000000	15.222553
1634.000000	15.205177
1635.000000	15.187222
1636.000000	15.168197
1637.000000	15.149835
1638.000000	15.154747
1639.000000	15.133168
1640.000000	15.111778
1641.000000	15.090187
1642.000000	15.067230
1643.000000	15.044237
1644.000000	15.046738
1645.000000	15.048260
1646.000000	15.050667
1647.000000	15.052210
1648.000000	15.052883
1649.000000	15.052702
1650.000000	15.051742
1651.000000	15.050343
1652.000000	15.047825
1653.000000	15.044027
1654.000000	15.037717
1655.000000	15.030668
1656.000000	15.020725
1657.000000	15.008878
1658.000000	14.995147
1659.000000	14.979755
1660.000000	14.937135
1661.000000	14.892885
1662.000000	14.845575
1663.000000	14.794428
1664.000000	14.742370
1665.000000	14.687412
1666.000000	14.631443
1667.000000	14.573960
1668.000000	14.510818
1669.000000	14.445132
1670.000000	14.403130
1671.000000	14.360040
1672.000000	14.318068
1673.000000	14.275660
1674.000000	14.232943
1675.000000	14.191517
1676.000000	14.148972
1677.000000	14.105973
1678.000000	14.067190
1679.000000	14.028242
1680.000000	13.989413
1681.000000	13.947153
1682.000000	13.903123
1683.000000	13.858605
1684.000000	13.813785
1685.000000	13.767978
1686.000000	13.725090
1687.000000	13.686125
1688.000000	13.653070
1689.000000	13.625825
1690.000000	13.605282
1691.000000	13.595247
1692.000000	13.592820
1693.000000	13.599523
1694.000000	13.612528
1695.000000	13.630273
1696.000000	13.649752
1697.000000	13.670220
1698.000000	13.689427
1699.000000	13.709072
1700.000000	13.724642
1701.000000	13.735945
1702.000000	13.745325
1703.000000	13.749987
1704.000000	13.750068
1705.000000	13.746723
1706.000000	13.740782
1707.000000	13.731598
1708.000000	13.718812
1709.000000	13.701808
1710.000000	13.683177
1711.000000	13.660138
1712.000000	13.606355
1713.000000	13.549432
1714.000000	13.488618
1715.000000	13.424640
1716.000000	13.356647
1717.000000	13.284068
1718.000000	13.209732
1719.000000	13.134117
1720.000000	13.056475
1721.000000	12.981005
1722.000000	12.933637
1723.000000	12.889875
1724.000000	12.851430
1725.000000	12.821295
1726.000000	12.799198
1727.000000	12.785833
1728.000000	12.779100
1729.000000	12.778600
1730.000000	12.784970
1731.000000	12.795940
1732.000000	12.810090
1733.000000	12.826733
1734.000000	12.845873
1735.000000	12.864020
1736.000000	12.881460
1737.000000	12.899128
1738.000000	12.917458
1739.000000	12.936072
1740.000000	12.955797
1741.000000	12.975375
1742.000000	12.996715
1743.000000	13.018495
1744.000000	13.065895
1745.000000	13.112787
1746.000000	13.160110
1747.000000	13.206922
1748.000000	13.252562
1749.000000	13.296935
1750.000000	13.338140
1751.000000	13.377710
1752.000000	13.415278
1753.000000	13.449908
1754.000000	13.456885
1755.000000	13.462585
1756.000000	13.467007
1757.000000	13.470310
1758.000000	13.471673
1759.000000	13.472215
1760.000000	13.473382
1761.000000	13.473198
1762.000000	13.473090
1763.000000	13.473860
1764.000000	13.475053
1765.000000	13.477180
1766.000000	13.479553
1767.000000	13.482112
1768.000000	13.485725
1769.000000	13.490118
1770.000000	13.496440
1771.000000	13.504773
1772.000000	13.512955
1773.000000	13.522170
1774.000000	13.532125
1775.000000	13.541982
1776.000000	13.553340
1777.000000	13.564590
1778.000000	13.577027
1779.000000	13.590715
1780.000000	13.602837
1781.000000	13.614073
1782.000000	13.624370
1783.000000	13.633558
1784.000000	13.642550
1785.000000	13.650327
1786.000000	13.655745
1787.000000	13.660068
1788.000000	13.662905
1789.000000	13.663025
1790.000000	13.663030
1791.000000	13.664177
1792.000000	13.665200
1793.000000	13.666095
1794.000000	13.666653
1795.000000	13.668113
1796.000000	13.670497
1797.000000	13.672845
1798.000000	13.674062
1799.000000	13.676435
1800.000000	13.679585
1801.000000	13.683488
1802.000000	13.687410
1803.000000	13.689525
1804.000000	13.691050
1805.000000	13.693597
1806.000000	13.697457
1807.000000	13.702202
1808.000000	13.705823
1809.000000	13.707940
1810.000000	13.709955
1811.000000	13.712425
1812.000000	13.715207
1813.000000	13.718460
1814.000000	13.722530
1815.000000	13.726090
1816.000000	13.726192
1817.000000	13.720810
1818.000000	13.713207
1819.000000	13.709737
1820.000000	13.712977
1821.000000	13.719490
1822.000000	13.723320
1823.000000	13.721367
1824.000000	13.713387
1825.000000	13.703475
1826.000000	13.696440
1827.000000	13.696053
1828.000000	13.700952
1829.000000	13.704870
1830.000000	13.704925
1831.000000	13.699005
1832.000000	13.690945
1833.000000	13.684585
1834.000000	13.681432
1835.000000	13.681780
1836.000000	13.710722
1837.000000	13.741073
1838.000000	13.771023
1839.000000	13.800403
1840.000000	13.830435
1841.000000	13.869418
1842.000000	13.915270
1843.000000	13.958533
1844.000000	13.991420
1845.000000	14.013390
1846.000000	14.009540
1847.000000	14.016923
1848.000000	14.035762
1849.000000	14.052392
1850.000000	14.054765
1851.000000	14.040600
1852.000000	14.023070
1853.000000	14.014820
1854.000000	14.020833
1855.000000	14.035055
1856.000000	14.040115
1857.000000	14.002517
1858.000000	13.956480
1859.000000	13.914455
1860.000000	13.882525
1861.000000	13.881975
1862.000000	13.852890
1863.000000	13.813413
1864.000000	13.763257
1865.000000	13.706162
1866.000000	13.648177
1867.000000	13.613640
1868.000000	13.571138
1869.000000	13.526475
1870.000000	13.485067
1871.000000	13.420935
1872.000000	13.387245
1873.000000	13.361840
1874.000000	13.341172
1875.000000	13.322830
1876.000000	13.304998
1877.000000	13.286245
1878.000000	13.238730
1879.000000	13.180690
1880.000000	13.106502
1881.000000	13.021765
1882.000000	12.928252
1883.000000	12.827797
1884.000000	12.722708
1885.000000	12.613065
1886.000000	12.472305
1887.000000	12.321977
1888.000000	12.191520
1889.000000	12.058685
1890.000000	11.927153
1891.000000	11.796920
1892.000000	11.663853
1893.000000	11.524165
1894.000000	11.378610
1895.000000	11.200730
1896.000000	11.043790
1897.000000	10.888210
1898.000000	10.735038
1899.000000	10.585630
1900.000000	10.437112
1901.000000	10.286095
1902.000000	10.108310
1903.000000	9.933317
1904.000000	9.765403
1905.000000	9.633725
1906.000000	9.511385
1907.000000	9.395903
1908.000000	9.282163
1909.000000	9.167167
1910.000000	9.052885
1911.000000	8.944077
1912.000000	8.845173
1913.000000	8.755402
1914.000000	8.669635
1915.000000	8.583595
1916.000000	8.498440
1917.000000	8.413260
1918.000000	8.332888
1919.000000	8.260792
1920.000000	8.196655
1921.000000	8.137680
1922.000000	8.104795
1923.000000	8.071075
1924.000000	8.037080
1925.000000	8.006295
1926.000000	7.980515
1927.000000	7.962310
1928.000000	7.948398
1929.000000	7.934725
1930.000000	7.922265
1931.000000	7.910565
1932.000000	7.898730
1933.000000	7.889665
1934.000000	7.884278
1935.000000	7.880710
1936.000000	7.878967
1937.000000	7.877320
1938.000000	7.877795
1939.000000	7.881075
1940.000000	7.885920
1941.000000	7.890350
1942.000000	7.897650
1943.000000	7.906415
1944.000000	7.916240
1945.000000	7.929090
1946.000000	7.942100
1947.000000	7.956068
1948.000000	7.969825
1949.000000	7.984455
1950.000000	7.998995
1951.000000	8.015420
1952.000000	8.032872
1953.000000	8.050685
1954.000000	8.068498
1955.000000	8.086545
1956.000000	8.105980
1957.000000	8.125072
1958.000000	8.145095
1959.000000	8.163913
1960.000000	8.183955
1961.000000	8.202772
1962.000000	8.221777
1963.000000	8.241502
1964.000000	8.261458
1965.000000	8.280380
1966.000000	8.298182
1967.000000	8.316642
1968.000000	8.333367
1969.000000	8.351740
1970.000000	8.369105
1971.000000	8.387955
1972.000000	8.406600
1973.000000	8.423665
1974.000000	8.442095
1975.000000	8.484365
1976.000000	8.526320
1977.000000	8.569638
1978.000000	8.612847
1979.000000	8.654960
1980.000000	8.697687
1981.000000	8.740358
1982.000000	8.783112
1983.000000	8.826330
1984.000000	8.868780
1985.000000	8.887995
1986.000000	8.906830
1987.000000	8.925558
1988.000000	8.944545
1989.000000	8.962978
1990.000000	8.981223
1991.000000	8.998532
1992.000000	9.016140
1993.000000	9.033593
1994.000000	9.050628
1995.000000	9.066030
1996.000000	9.080353
1997.000000	9.093078
1998.000000	9.106345
1999.000000	9.118443
2000.000000	9.129350
2001.000000	9.139945
2002.000000	9.149035
2003.000000	9.157755
2004.000000	9.165455
2005.000000	9.172612
2006.000000	9.179798
2007.000000	9.210745
2008.000000	9.215650
2009.000000	9.219155
2010.000000	9.221053
2011.000000	9.246775
2012.000000	9.244500
2013.000000	9.241330
2014.000000	9.261225
2015.000000	9.253903
2016.000000	9.246377
2017.000000	9.212770
2018.000000	9.201598
2019.000000	9.189998
2020.000000	9.176407
2021.000000	9.136218
2022.000000	9.121343
2023.000000	9.103993
2024.000000	9.061148
2025.000000	9.042470
2026.000000	9.021735
2027.000000	9.000090
2028.000000	8.976443
2029.000000	8.952530
2030.000000	8.927803
2031.000000	8.901827
2032.000000	8.874662
2033.000000	8.847380
2034.000000	8.818000
2035.000000	8.787360
2036.000000	8.756297
2037.000000	8.723795
2038.000000	8.691168
2039.000000	8.655787
2040.000000	8.620552
2041.000000	8.584625
2042.000000	8.548287
2043.000000	8.511968
2044.000000	8.475830
2045.000000	8.440223
2046.000000	8.405035
2047.000000	8.370150
2048.000000	8.336522
2049.000000	8.305578
2050.000000	8.277340
2051.000000	8.251842
2052.000000	8.229290
2053.000000	8.209075
2054.000000	8.192472
2055.000000	8.180595
2056.000000	8.172855
2057.000000	8.169912
2058.000000	8.171247
2059.000000	8.175610
2060.000000	8.183355
2061.000000	8.194830
2062.000000	8.208230
2063.000000	8.224277
2064.000000	8.243090
2065.000000	8.263080
2066.000000	8.283897
2067.000000	8.305225
2068.000000	8.327372
2069.000000	8.349855
2070.000000	8.371170
2071.000000	8.391870
2072.000000	8.437275
2073.000000	8.481762
2074.000000	8.525075
2075.000000	8.568347
2076.000000	8.610115
2077.000000	8.650182
2078.000000	8.688712
2079.000000	8.725288
2080.000000	8.759857
2081.000000	8.793142
2082.000000	8.800202
2083.000000	8.805450
2084.000000	8.809005
2085.000000	8.810160
2086.000000	8.809775
2087.000000	8.807852
2088.000000	8.803595
2089.000000	8.798703
2090.000000	8.793865
2091.000000	8.788165
2092.000000	8.781665
2093.000000	8.774847
2094.000000	8.767407
2095.000000	8.759330
2096.000000	8.751282
2097.000000	8.743972
2098.000000	8.737718
2099.000000	8.732355
2100.000000	8.727265
2101.000000	8.721602
2102.000000	8.716602
2103.000000	8.712135
2104.000000	8.708053
2105.000000	8.705037
2106.000000	8.701975
2107.000000	8.698820
2108.000000	8.696025
2109.000000	8.692663
2110.000000	8.689412
2111.000000	8.686890
2112.000000	8.683008
2113.000000	8.677957
2114.000000	8.672825
2115.000000	8.667278
2116.000000	8.661400
2117.000000	8.654335
2118.000000	8.646142
2119.000000	8.637460
2120.000000	8.628060
2121.000000	8.617040
2122.000000	8.606122
2123.000000	8.595857
2124.000000	8.584675
2125.000000	8.572170
2126.000000	8.559297
2127.000000	8.546355
2128.000000	8.533593
2129.000000	8.520518
2130.000000	8.506865
2131.000000	8.492505
2132.000000	8.477782
2133.000000	8.462285
2134.000000	8.446545
2135.000000	8.430673
2136.000000	8.413473
2137.000000	8.395457
2138.000000	8.376810
2139.000000	8.357672
2140.000000	8.337035
2141.000000	8.316562
2142.000000	8.296558
2143.000000	8.275433
2144.000000	8.253490
2145.000000	8.230552
2146.000000	8.207987
2147.000000	8.185897
2148.000000	8.163250
2149.000000	8.140338
2150.000000	8.118773
2151.000000	8.071828
2152.000000	8.023640
2153.000000	7.976677
2154.000000	7.931190
2155.000000	7.886692
2156.000000	7.842708
2157.000000	7.799198
2158.000000	7.756900
2159.000000	7.716375
2160.000000	7.676555
2161.000000	7.662720
2162.000000	7.650175
2163.000000	7.638603
2164.000000	7.627483
2165.000000	7.616428
2166.000000	7.606982
2167.000000	7.598720
2168.000000	7.590558
2169.000000	7.582568
2170.000000	7.550077
2171.000000	7.543662
2172.000000	7.537925
2173.000000	7.532390
2174.000000	7.527027
2175.000000	7.497587
2176.000000	7.467618
2177.000000	7.436905
2178.000000	7.408100
2179.000000	7.379367
2180.000000	7.374332
2181.000000	7.344310
2182.000000	7.314730
2183.000000	7.284085
2184.000000	7.252962
2185.000000	7.246155
2186.000000	7.213395
2187.000000	7.180025
2188.000000	7.143665
2189.000000	7.105137
2190.000000	7.065922
2191.000000	7.024915
2192.000000	6.981220
2193.000000	6.935568
2194.000000	6.887847
2195.000000	6.838567
2196.000000	6.787097
2197.000000	6.734605
2198.000000	6.680842
2199.000000	6.625827
2200.000000	6.570443
2201.000000	6.515053
2202.000000	6.434897
2203.000000	6.381380
2204.000000	6.329133
2205.000000	6.254167
2206.000000	6.207067
2207.000000	6.162070
2208.000000	6.120643
2209.000000	6.083775
2210.000000	6.049925
2211.000000	6.019710
2212.000000	6.018472
2213.000000	5.995830
2214.000000	5.976135
2215.000000	5.984298
2216.000000	5.995588
2217.000000	6.010385
2218.000000	6.026935
2219.000000	6.044458
2220.000000	6.063783
2221.000000	6.083230
2222.000000	6.103042
2223.000000	6.123398
2224.000000	6.144518
2225.000000	6.164705
2226.000000	6.184040
2227.000000	6.202610
2228.000000	6.244930
2229.000000	6.285650
2230.000000	6.325902
2231.000000	6.339787
2232.000000	6.376937
2233.000000	6.386710
2234.000000	6.394385
2235.000000	6.399497
2236.000000	6.402265
2237.000000	6.428285
2238.000000	6.427670
2239.000000	6.425885
2240.000000	6.420512
2241.000000	6.414357
2242.000000	6.406305
2243.000000	6.396762
2244.000000	6.385477
2245.000000	6.398318
2246.000000	6.385440
2247.000000	6.346088
2248.000000	6.304915
2249.000000	6.262900
2250.000000	6.244853
2251.000000	6.224852
2252.000000	6.205042
2253.000000	6.210323
2254.000000	6.217087
2255.000000	6.198340
2256.000000	6.204467
2257.000000	6.209852
2258.000000	6.218250
2259.000000	6.225865
2260.000000	6.211335
2261.000000	6.223210
2262.000000	6.186098
2263.000000	6.149645
2264.000000	6.139583
2265.000000	6.131983
2266.000000	6.126453
2267.000000	6.122013
2268.000000	6.117813
2269.000000	6.117275
2270.000000	6.116738
2271.000000	6.143073
2272.000000	6.195490
2273.000000	6.248737
2274.000000	6.276903
2275.000000	6.305455
2276.000000	6.333515
2277.000000	6.361855
2278.000000	6.390260
2279.000000	6.418153
2280.000000	6.444885
2281.000000	6.446460
2282.000000	6.447960
2283.000000	6.449113
2284.000000	6.473708
2285.000000	6.497740
2286.000000	6.521903
2287.000000	6.546695
2288.000000	6.570897
2289.000000	6.595680
2290.000000	6.621140
2291.000000	6.646515
2292.000000	6.670612
2293.000000	6.695515
2294.000000	6.695855
2295.000000	6.696937
2296.000000	6.698455
2297.000000	6.699885
2298.000000	6.701595
2299.000000	6.702518
2300.000000	6.728758
2301.000000	6.730275
2302.000000	6.732900
2303.000000	6.736420
2304.000000	6.741062
2305.000000	6.745753
2306.000000	6.750832
2307.000000	6.756530
2308.000000	6.762685
2309.000000	6.793942
2310.000000	6.800357
2311.000000	6.832690
2312.000000	6.865590
2313.000000	6.896632
2314.000000	6.927677
2315.000000	6.958457
2316.000000	6.987185
2317.000000	7.015823
2318.000000	7.043882
2319.000000	7.070578
2320.000000	7.096790
2321.000000	7.097095
2322.000000	7.095767
2323.000000	7.093562
2324.000000	7.115060
2325.000000	7.110832
2326.000000	7.107003
2327.000000	7.102053
2328.000000	7.121790
2329.000000	7.092342
2330.000000	7.063410
2331.000000	7.058770
2332.000000	7.079315
2333.000000	7.100442
2334.000000	7.097463
2335.000000	7.120565
2336.000000	7.144643
2337.000000	7.168873
2338.000000	7.168805
2339.000000	7.194208
2340.000000	7.220713
2341.000000	7.247780
2342.000000	7.250595
2343.000000	7.278862
2344.000000	7.307247
2345.000000	7.335055
2346.000000	7.362955
2347.000000	7.392902
2348.000000	7.423578
2349.000000	7.430497
2350.000000	7.436752
2351.000000	7.465310
2352.000000	7.491623
2353.000000	7.518038
2354.000000	7.520487
2355.000000	7.524255
2356.000000	7.528453
2357.000000	7.531097
2358.000000	7.532327
2359.000000	7.556555
2360.000000	7.580615
2361.000000	7.581750
2362.000000	7.609920
2363.000000	7.614267
2364.000000	7.642017
2365.000000	7.668480
2366.000000	7.693930
2367.000000	7.719032
2368.000000	7.744605
2369.000000	7.745610
2370.000000	7.747050
2371.000000	7.773623
2372.000000	7.775288
2373.000000	7.775953
2374.000000	7.776570
2375.000000	7.752973
2376.000000	7.729965
2377.000000	7.706815
2378.000000	7.683495
2379.000000	7.709580
2380.000000	7.735425
2381.000000	7.736285
2382.000000	7.736700
2383.000000	7.737285
2384.000000	7.737533
2385.000000	7.761748
2386.000000	7.810840
2387.000000	7.834830
2388.000000	7.858162
2389.000000	7.857305
2390.000000	7.880298
2391.000000	7.902815
2392.000000	7.900190
2393.000000	7.896610
2394.000000	7.892963
2395.000000	7.889397
2396.000000	7.885010
2397.000000	7.880248
2398.000000	7.875865
2399.000000	7.870560
2400.000000	7.865210
2401.000000	7.860075
2402.000000	7.854340
2403.000000	7.848393
2404.000000	7.867962
2405.000000	7.886253
2406.000000	7.879502
2407.000000	7.897837
2408.000000	7.940473
2409.000000	7.957522
2410.000000	7.949075
2411.000000	7.940273
2412.000000	7.955032
2413.000000	7.970380
2414.000000	7.959862
2415.000000	7.974995
2416.000000	7.988698
2417.000000	8.000962
2418.000000	7.961960
2419.000000	7.947970
2420.000000	7.933950
2421.000000	7.944435
2422.000000	7.931000
2423.000000	7.915838
2424.000000	7.924378
2425.000000	7.906700
2426.000000	7.890273
2427.000000	7.849325
2428.000000	7.833420
2429.000000	7.842117
2430.000000	7.825190
2431.000000	7.782992
2432.000000	7.790260
2433.000000	7.823080
2434.000000	7.831760
2435.000000	7.840363
2436.000000	7.847597
2437.000000	7.854872
2438.000000	7.837180
2439.000000	7.820475
2440.000000	7.854015
2441.000000	7.862020
2442.000000	7.845655
2443.000000	7.778908
2444.000000	7.736745
2445.000000	7.694525
2446.000000	7.627598
2447.000000	7.637322
2448.000000	7.672735
2449.000000	7.682597
2450.000000	7.692055
2451.000000	7.752260
2452.000000	7.786522
2453.000000	7.872340
2454.000000	7.882340
2455.000000	7.918225
2456.000000	7.956118
2457.000000	7.994305
2458.000000	8.081502
2459.000000	8.144180
2460.000000	8.183070
2461.000000	8.196720
2462.000000	8.263468
2463.000000	8.279260
2464.000000	8.396745
2465.000000	8.489780
2466.000000	8.630975
2467.000000	8.673000
2468.000000	8.742475
2469.000000	8.812125
2470.000000	8.906797
2471.000000	9.026393
2472.000000	9.121112
2473.000000	9.266158
2474.000000	9.312842
2475.000000	9.386857
2476.000000	9.510702
2477.000000	9.657707
2478.000000	9.729317
2479.000000	9.875752
2480.000000	9.975600
2481.000000	10.026050
2482.000000	10.126632
2483.000000	10.178033
2484.000000	10.376200
2485.000000	10.503448
2486.000000	10.576640
2487.000000	10.678380
2488.000000	10.807588
2489.000000	10.964652
2490.000000	11.118365
2491.000000	11.298645
2492.000000	11.504473
2493.000000	11.785692
2494.000000	11.921170
2495.000000	12.175855
2496.000000	12.445542
2497.000000	12.584437
2498.000000	12.742038
2499.000000	12.920607
2500.000000	13.181150
2501.000000	17.288312
2502.000000	21.418758
2503.000000	25.498910
2504.000000	29.627315
2505.000000	33.580812
2506.000000	37.600312
2507.000000	41.847767
2508.000000	46.049352
2509.000000	50.552740
2510.000000	55.400000
2511.000000	56.100000
2512.000000	56.700000
2513.000000	57.300000
2514.000000	57.700000
2515.000000	58.400000
2516.000000	59.000000
2517.000000	60.100000
2518.000000	61.400000
2519.000000	62.300000
2520.000000	63.100000
2521.000000	64.400000
2522.000000	65.500000
2523.000000	66.600000
2524.000000	67.700000
2525.000000	68.900000
2526.000000	69.800000
2527.000000	70.500000
2528.000000	71.300000
2529.000000	72.800000
2530.000000	73.700000
2531.000000	74.100000
2532.000000	74.800000
2533.000000	75.200000
2534.000000	76.200000
2535.000000	77.000000
2536.000000	78.200000
2537.000000	79.100000
2538.000000	79.400000
2539.000000	78.900000
2540.000000	78.900000
2541.000000	79.700000
2542.000000	80.700000
2543.000000	81.500000
2544.000000	82.200000
2545.000000	84.100000
2546.000000	85.600000
2547.000000	86.400000
2548.000000	87.400000
2549.000000	88.300000
2550.000000	89.400000
2551.000000	89.700000
2552.000000	89.900000
2553.000000	91.300000
2554.000000	91.900000
2555.000000	91.400000
2556.000000	91.200000
2557.000000	90.900000
2558.000000	90.600000
2559.000000	90.700000
2560.000000	90.900000
2561.000000	91.200000
2562.000000	92.200000
2563.000000	92.600000
2564.000000	93.200000
2565.000000	93.300000
2566.000000	93.100000
2567.000000	93.600000
2568.000000	94.200000
2569.000000	95.500000
2570.000000	96.700000
2571.000000	97.900000
2572.000000	98.000000
2573.000000	97.600000
2574.000000	97.000000
2575.000000	96.700000
2576.000000	96.800000
2577.000000	97.100000
2578.000000	97.200000
2579.000000	96.900000
2580.000000	96.400000
2581.000000	96.000000
2582.000000	95.300000
2583.000000	94.700000
2584.000000	94.900000
2585.000000	95.500000
2586.000000	96.600000
2587.000000	97.400000
2588.000000	98.300000
2589.000000	98.000000
2590.000000	97.100000
2591.000000	96.400000
2592.000000	96.400000
2593.000000	97.100000
2594.000000	97.900000
2595.000000	98.400000
2596.000000	98.400000
2597.000000	98.000000
2598.000000	97.600000
2599.000000	98.100000
2600.000000	98.800000
2601.000000	99.100000
2602.000000	99.500000
2603.000000	100.400000
2604.000000	100.900000
2605.000000	100.900000
2606.000000	100.600000
2607.000000	100.400000
2608.000000	99.800000
2609.000000	99.400000
2610.000000	99.500000
2611.000000	99.900000
2612.000000	100.400000
2613.000000	100.100000
2614.000000	99.300000
2615.000000	98.500000
2616.000000	97.800000
2617.000000	97.700000
2618.000000	98.700000
2619.000000	99.000000
2620.000000	98.700000
2621.000000	98.900000
2622.000000	99.300000
2623.000000	98.800000
2624.000000	98.400000
2625.000000	98.600000
2626.000000	98.300000
2627.000000	97.700000
2628.000000	97.600000
2629.000000	98.400000
2630.000000	99.900000
2631.000000	100.600000
2632.000000	99.600000
2633.000000	99.200000
2634.000000	99.800000
2635.000000	100.800000
2636.000000	102.300000
2637.000000	104.200000
2638.000000	105.300000
2639.000000	104.700000
2640.000000	103.400000
2641.000000	101.800000
2642.000000	101.600000
2643.000000	102.000000
2644.000000	102.600000
2645.000000	103.900000
2646.000000	104.500000
2647.000000	104.100000
2648.000000	102.800000
2649.000000	102.400000
2650.000000	102.100000
2651.000000	103.100000
2652.000000	103.900000
2653.000000	104.200000
2654.000000	104.200000
2655.000000	102.800000
2656.000000	102.000000
2657.000000	101.500000
2658.000000	101.000000
2659.000000	100.600000
2660.000000	100.900000
2661.000000	101.600000
2662.000000	101.700000
2663.000000	101.500000
2664.000000	100.900000
2665.000000	100.200000
2666.000000	99.600000
2667.000000	99.800000
2668.000000	100.500000
2669.000000	101.400000
2670.000000	102.000000
2671.000000	101.100000
2672.000000	100.200000
2673.000000	100.400000
2674.000000	99.700000
2675.000000	99.700000
2676.000000	100.200000
2677.000000	100.200000
2678.000000	99.300000
2679.000000	98.100000
2680.000000	96.900000
2681.000000	97.000000
2682.000000	98.100000
2683.000000	98.100000
2684.000000	98.700000
2685.000000	98.500000
2686.000000	97.600000
2687.000000	97.000000
2688.000000	97.600000
2689.000000	98.400000
2690.000000	98.900000
2691.000000	99.000000
2692.000000	98.500000
2693.000000	98.500000
2694.000000	98.000000
2695.000000	97.700000
2696.000000	98.200000
2697.000000	99.100000
2698.000000	99.700000
2699.000000	100.100000
2700.000000	100.800000
2701.000000	99.600000
2702.000000	99.200000
2703.000000	98.900000
2704.000000	98.700000
2705.000000	99.800000
2706.000000	100.400000
2707.000000	100.900000
2708.000000	101.600000
2709.000000	100.900000
2710.000000	100.700000
2711.000000	101.800000
2712.000000	102.400000
2713.000000	102.500000
2714.000000	104.400000
2715.000000	105.000000
2716.000000	104.800000
2717.000000	102.900000
2718.000000	101.000000
2719.000000	101.400000
2720.000000	101.300000
2721.000000	101.300000
2722.000000	101.300000
2723.000000	101.300000
2724.000000	100.500000
2725.000000	99.500000
2726.000000	99.500000
2727.000000	100.100000
2728.000000	101.300000
2729.000000	102.100000
2730.000000	102.600000
2731.000000	103.100000
2732.000000	103.500000
2733.000000	103.000000
2734.000000	102.100000
2735.000000	102.300000
2736.000000	102.200000
2737.000000	102.800000
2738.000000	102.700000
2739.000000	101.800000
2740.000000	101.700000
2741.000000	100.100000
2742.000000	98.800000
2743.000000	99.200000
2744.000000	99.500000
2745.000000	99.200000
2746.000000	99.700000
2747.000000	99.900000
2748.000000	99.800000
2749.000000	99.600000
2750.000000	98.500000
2751.000000	99.100000
2752.000000	100.400000
2753.000000	101.000000
2754.000000	101.200000
2755.000000	101.400000
2756.000000	100.200000
2757.000000	98.800000
2758.000000	98.300000
2759.000000	99.100000
2760.000000	101.300000
2761.000000	102.600000
2762.000000	101.700000
2763.000000	101.200000
2764.000000	100.600000
2765.000000	100.200000
2766.000000	100.700000
2767.000000	101.200000
2768.000000	101.700000
2769.000000	102.300000
2770.000000	100.800000
2771.000000	100.500000
2772.000000	99.800000
2773.000000	100.000000
2774.000000	100.600000
2775.000000	101.400000
2776.000000	102.700000
2777.000000	103.800000
2778.000000	103.000000
2779.000000	101.000000
2780.000000	100.300000
2781.000000	99.800000
2782.000000	100.900000
2783.000000	101.200000
2784.000000	101.600000
2785.000000	101.400000
2786.000000	100.700000
2787.000000	99.700000
2788.000000	100.200000
2789.000000	100.900000
2790.000000	101.800000
2791.000000	102.100000
2792.000000	101.700000
2793.000000	101.100000
2794.000000	100.200000
2795.000000	99.400000
2796.000000	98.700000
2797.000000	99.800000
2798.000000	100.500000
2799.000000	101.300000
2800.000000	102.000000
2801.000000	101.700000
2802.000000	101.200000
2803.000000	100.800000
2804.000000	101.400000
2805.000000	102.600000
2806.000000	103.000000
2807.000000	102.800000
2808.000000	102.600000
2809.000000	101.800000
2810.000000	100.300000
2811.000000	99.900000
2812.000000	101.000000
2813.000000	102.200000
2814.000000	102.400000
2815.000000	101.800000
2816.000000	102.000000
2817.000000	100.800000
2818.000000	99.700000
2819.000000	99.900000
2820.000000	101.600000
2821.000000	103.200000
2822.000000	103.800000
2823.000000	103.900000
2824.000000	103.300000
2825.000000	102.600000
2826.000000	101.500000
2827.000000	101.800000
2828.000000	102.300000
2829.000000	103.100000
2830.000000	102.700000
2831.000000	101.600000
2832.000000	100.600000
2833.000000	99.900000
2834.000000	100.500000
2835.000000	100.900000
2836.000000	101.600000
2837.000000	102.000000
2838.000000	102.500000
2839.000000	101.200000
2840.000000	100.000000
2841.000000	99.600000
2842.000000	99.400000
2843.000000	99.300000
2844.000000	99.300000
2845.000000	99.100000
2846.000000	98.800000
2847.000000	98.200000
2848.000000	97.100000
2849.000000	97.900000
2850.000000	98.000000
2851.000000	98.200000
2852.000000	99.300000
2853.000000	99.900000
2854.000000	99.700000
2855.000000	99.600000
2856.000000	98.900000
2857.000000	98.800000
2858.000000	99.900000
2859.000000	100.100000
2860.000000	101.000000
2861.000000	101.700000
2862.000000	101.200000
2863.000000	100.700000
2864.000000	100.600000
2865.000000	101.300000
2866.000000	102.700000
2867.000000	103.800000
2868.000000	104.200000
2869.000000	103.900000
2870.000000	102.700000
2871.000000	101.600000
2872.000000	100.800000
2873.000000	100.300000
2874.000000	100.400000
2875.000000	100.700000
2876.000000	100.600000
2877.000000	100.400000
2878.000000	99.500000
2879.000000	99.300000
2880.000000	100.200000
2881.000000	100.400000
2882.000000	100.800000
2883.000000	101.500000
2884.000000	101.200000
2885.000000	100.200000
2886.000000	99.100000
2887.000000	98.400000
2888.000000	98.800000
2889.000000	99.000000
2890.000000	98.400000
2891.000000	98.100000
2892.000000	97.700000
2893.000000	97.200000
2894.000000	97.400000
2895.000000	97.800000
2896.000000	98.500000
2897.000000	99.200000
2898.000000	99.200000
2899.000000	99.500000
2900.000000	100.000000
2901.000000	100.100000
2902.000000	99.800000
2903.000000	99.800000
2904.000000	99.500000
2905.000000	99.900000
2906.000000	101.000000
2907.000000	101.400000
2908.000000	101.600000
2909.000000	101.100000
2910.000000	100.400000
2911.000000	100.300000
2912.000000	100.800000
2913.000000	101.400000
2914.000000	102.300000
2915.000000	102.700000
2916.000000	101.900000
2917.000000	100.900000
2918.000000	100.300000
2919.000000	101.000000
2920.000000	102.200000
2921.000000	103.300000
2922.000000	104.000000
2923.000000	103.700000
2924.000000	102.700000
2925.000000	101.300000
2926.000000	100.900000
2927.000000	101.200000
2928.000000	101.700000
2929.000000	102.400000
2930.000000	102.100000
2931.000000	101.500000
2932.000000	101.400000
2933.000000	101.300000
2934.000000	102.000000
2935.000000	102.800000
2936.000000	103.400000
2937.000000	103.900000
2938.000000	103.900000
2939.000000	102.700000
2940.000000	102.200000
2941.000000	101.100000
2942.000000	100.000000
2943.000000	100.100000
2944.000000	100.500000
2945.000000	100.900000
2946.000000	100.700000
2947.000000	100.600000
2948.000000	100.600000
2949.000000	99.700000
2950.000000	99.100000
2951.000000	100.900000
2952.000000	102.200000
2953.000000	102.600000
2954.000000	102.200000
2955.000000	101.400000
2956.000000	100.400000
2957.000000	99.700000
2958.000000	99.300000
2959.000000	99.900000
2960.000000	100.900000
2961.000000	100.600000
2962.000000	100.800000
2963.000000	100.300000
2964.000000	99.900000
2965.000000	99.800000
2966.000000	100.700000
2967.000000	101.500000
2968.000000	102.300000
2969.000000	103.400000
2970.000000	102.400000
2971.000000	101.700000
2972.000000	100.600000
2973.000000	101.100000
2974.000000	101.400000
2975.000000	103.100000
2976.000000	103.400000
2977.000000	102.800000
2978.000000	102.300000
2979.000000	100.700000
2980.000000	101.400000
2981.000000	102.000000
2982.000000	102.400000
2983.000000	102.400000
2984.000000	102.300000
2985.000000	100.700000
2986.000000	100.100000
2987.000000	100.600000
2988.000000	100.700000
2989.000000	101.500000
2990.000000	102.700000
2991.000000	102.900000
2992.000000	102.400000
2993.000000	101.600000
2994.000000	100.700000
2995.000000	100.100000
2996.000000	99.700000
2997.000000	98.800000
2998.000000	99.600000
2999.000000	101.000000
3000.000000	100.600000
