PE UV       SUBTECH     SPECTRUM    ASCII       PEDS        4.00        
   -1
INBUCR0322-4.Sample.ASC
24/02/08
17:30:47.00
24/02/08
17:30:47.00
Vinicio Soto Monge
Color verde rojizo iridiscente. Sin élitros
250,000000
1
Lambda 1050
1050L1511233
PerkinElmer UV WinLab 6.3.2.0749 / 2.02.05 Lambda 900 UV/VIS/NIR, Aug  7 2015 09:38:08

0
0
3350/servo 860,8/2
0
0
UV/VIS
1
1
1
DoubleDePol,CommonBeamDepol,RBeamAtt,SBeamAtt,60mm sphere, WB InGaAs Detector
0
0
0
0
Program
Program
3350/servo 860,8/2
3350/0,2 860,8/0,2
3350/0,2 860,8/0,2
0
15.00
 
 
 
0
 
860,8
319,2
860,8
Front
100
on
S:100 R:100
0
0
0
0
 
0
 
 
 
0
 
 
0
0
0
0
0
 
 
 
 
0
0


0
0
#HDR
-1
-1
#GR
nm
%R
1.0
0.0
2500,000000
-1,000000
2251
8
4,345000
0,391100
#DATA

250.000000	nan
251.000000	nan
252.000000	nan
253.000000	nan
254.000000	nan
255.000000	nan
256.000000	nan
257.000000	nan
258.000000	nan
259.000000	4.442688
260.000000	4.441011
261.000000	4.438737
262.000000	4.435823
263.000000	4.432765
264.000000	4.428895
265.000000	4.425195
266.000000	4.420353
267.000000	4.416015
268.000000	4.412303
269.000000	4.410181
270.000000	4.406843
271.000000	4.404674
272.000000	4.400620
273.000000	4.395986
274.000000	4.392151
275.000000	4.388983
276.000000	4.386664
277.000000	4.384470
278.000000	4.382050
279.000000	4.378419
280.000000	4.376049
281.000000	4.374014
282.000000	4.372729
283.000000	4.371232
284.000000	4.369540
285.000000	4.367680
286.000000	4.366253
287.000000	4.366303
288.000000	4.365125
289.000000	4.364209
290.000000	4.362593
291.000000	4.360059
292.000000	4.358908
293.000000	4.358249
294.000000	4.357743
295.000000	4.358392
296.000000	4.358571
297.000000	4.356228
298.000000	4.356535
299.000000	4.356714
300.000000	4.355648
301.000000	4.354350
302.000000	4.354271
303.000000	4.352979
304.000000	4.352427
305.000000	4.349559
306.000000	4.350407
307.000000	4.350033
308.000000	4.347865
309.000000	4.346592
310.000000	4.345656
311.000000	4.346357
312.000000	4.345838
313.000000	4.346232
314.000000	4.344327
315.000000	4.345078
316.000000	4.342671
317.000000	4.358259
318.000000	4.372665
319.000000	4.388964
320.000000	4.435035
321.000000	4.485592
322.000000	4.488482
323.000000	4.492575
324.000000	4.505544
325.000000	4.514888
326.000000	4.520766
327.000000	4.513284
328.000000	4.501510
329.000000	4.495850
330.000000	4.458858
331.000000	4.418248
332.000000	4.421099
333.000000	4.424934
334.000000	4.419131
335.000000	4.412576
336.000000	4.414847
337.000000	4.448099
338.000000	4.447062
339.000000	4.438946
340.000000	4.435973
341.000000	4.427413
342.000000	4.423113
343.000000	4.417675
344.000000	4.416118
345.000000	4.417198
346.000000	4.413630
347.000000	4.376345
348.000000	4.377657
349.000000	4.376465
350.000000	4.375874
351.000000	4.377941
352.000000	4.377507
353.000000	4.377995
354.000000	4.378670
355.000000	4.377271
356.000000	4.375984
357.000000	4.373450
358.000000	4.371705
359.000000	4.371211
360.000000	4.367656
361.000000	4.363798
362.000000	4.363730
363.000000	4.360164
364.000000	4.388968
365.000000	4.385475
366.000000	4.381906
367.000000	4.377388
368.000000	4.373242
369.000000	4.368193
370.000000	4.364215
371.000000	4.359193
372.000000	4.353213
373.000000	4.347983
374.000000	4.308507
375.000000	4.303030
376.000000	4.341185
377.000000	4.337221
378.000000	4.333212
379.000000	4.330248
380.000000	4.325659
381.000000	4.359202
382.000000	4.391968
383.000000	4.426009
384.000000	4.460649
385.000000	4.496527
386.000000	4.487930
387.000000	4.524140
388.000000	4.560531
389.000000	4.596691
390.000000	4.633198
391.000000	4.633661
392.000000	4.633999
393.000000	4.634620
394.000000	4.634862
395.000000	4.635194
396.000000	4.635818
397.000000	4.636536
398.000000	4.636968
399.000000	4.637437
400.000000	4.638009
401.000000	4.638579
402.000000	4.638652
403.000000	4.639010
404.000000	4.639565
405.000000	4.640092
406.000000	4.640623
407.000000	4.640677
408.000000	4.640806
409.000000	4.641205
410.000000	4.641621
411.000000	4.642074
412.000000	4.642883
413.000000	4.643557
414.000000	4.643918
415.000000	4.644230
416.000000	4.644696
417.000000	4.645332
418.000000	4.646189
419.000000	4.646858
420.000000	4.647257
421.000000	4.647721
422.000000	4.648351
423.000000	4.648842
424.000000	4.649513
425.000000	4.650172
426.000000	4.650931
427.000000	4.651808
428.000000	4.652573
429.000000	4.653405
430.000000	4.654504
431.000000	4.655587
432.000000	4.656474
433.000000	4.657370
434.000000	4.658373
435.000000	4.659507
436.000000	4.660476
437.000000	4.661392
438.000000	4.662442
439.000000	4.663849
440.000000	4.665305
441.000000	4.666692
442.000000	4.668033
443.000000	4.669465
444.000000	4.670811
445.000000	4.672024
446.000000	4.673174
447.000000	4.674294
448.000000	4.675370
449.000000	4.676275
450.000000	4.677227
451.000000	4.678109
452.000000	4.679163
453.000000	4.680196
454.000000	4.681331
455.000000	4.682759
456.000000	4.684191
457.000000	4.685605
458.000000	4.687115
459.000000	4.688722
460.000000	4.690255
461.000000	4.692022
462.000000	4.693835
463.000000	4.695620
464.000000	4.697404
465.000000	4.699082
466.000000	4.700914
467.000000	4.702847
468.000000	4.705027
469.000000	4.707226
470.000000	4.709276
471.000000	4.711172
472.000000	4.713114
473.000000	4.715230
474.000000	4.717236
475.000000	4.719209
476.000000	4.721082
477.000000	4.723003
478.000000	4.724814
479.000000	4.726572
480.000000	4.728351
481.000000	4.730199
482.000000	4.731826
483.000000	4.733345
484.000000	4.735014
485.000000	4.736971
486.000000	4.775263
487.000000	4.813745
488.000000	4.852107
489.000000	4.890661
490.000000	4.929742
491.000000	4.969129
492.000000	5.008913
493.000000	5.048941
494.000000	5.089320
495.000000	5.129822
496.000000	5.134149
497.000000	5.138404
498.000000	5.143116
499.000000	5.148001
500.000000	5.152851
501.000000	5.157706
502.000000	5.162523
503.000000	5.167424
504.000000	5.172400
505.000000	5.177256
506.000000	5.182306
507.000000	5.187597
508.000000	5.192740
509.000000	5.197826
510.000000	5.202666
511.000000	5.207588
512.000000	5.212393
513.000000	5.217214
514.000000	5.221779
515.000000	5.226155
516.000000	5.230354
517.000000	5.234531
518.000000	5.238589
519.000000	5.242585
520.000000	5.246684
521.000000	5.250734
522.000000	5.255123
523.000000	5.259606
524.000000	5.264191
525.000000	5.269354
526.000000	5.274867
527.000000	5.280366
528.000000	5.286447
529.000000	5.292991
530.000000	5.299830
531.000000	5.306969
532.000000	5.314592
533.000000	5.322671
534.000000	5.331145
535.000000	5.339813
536.000000	5.348769
537.000000	5.358049
538.000000	5.367134
539.000000	5.376310
540.000000	5.385639
541.000000	5.395158
542.000000	5.404492
543.000000	5.413336
544.000000	5.421903
545.000000	5.430033
546.000000	5.437798
547.000000	5.445091
548.000000	5.452066
549.000000	5.458222
550.000000	5.463919
551.000000	5.468956
552.000000	5.473082
553.000000	5.512612
554.000000	5.551558
555.000000	5.589990
556.000000	5.627829
557.000000	5.664990
558.000000	5.701600
559.000000	5.738028
560.000000	5.771521
561.000000	5.803917
562.000000	5.836270
563.000000	5.832622
564.000000	5.828689
565.000000	5.824418
566.000000	5.819868
567.000000	5.815244
568.000000	5.810423
569.000000	5.805380
570.000000	5.802532
571.000000	5.800200
572.000000	5.797573
573.000000	5.794822
574.000000	5.791929
575.000000	5.788921
576.000000	5.785959
577.000000	5.783089
578.000000	5.780305
579.000000	5.776934
580.000000	5.773965
581.000000	5.770941
582.000000	5.768139
583.000000	5.765030
584.000000	5.762023
585.000000	5.759184
586.000000	5.756125
587.000000	5.753163
588.000000	5.750052
589.000000	5.747745
590.000000	5.745020
591.000000	5.742542
592.000000	5.739778
593.000000	5.737130
594.000000	5.734598
595.000000	5.732231
596.000000	5.729942
597.000000	5.727607
598.000000	5.725598
599.000000	5.723664
600.000000	5.721617
601.000000	5.719511
602.000000	5.718173
603.000000	5.716868
604.000000	5.715761
605.000000	5.714644
606.000000	5.714341
607.000000	5.714319
608.000000	5.714008
609.000000	5.713697
610.000000	5.713899
611.000000	5.714517
612.000000	5.714790
613.000000	5.715595
614.000000	5.716375
615.000000	5.717436
616.000000	5.718177
617.000000	5.719143
618.000000	5.756274
619.000000	5.793827
620.000000	5.831453
621.000000	5.868914
622.000000	5.906712
623.000000	5.944763
624.000000	5.982742
625.000000	6.020962
626.000000	6.059136
627.000000	6.097383
628.000000	6.100185
629.000000	6.102614
630.000000	6.105218
631.000000	6.107823
632.000000	6.110386
633.000000	6.112884
634.000000	6.115623
635.000000	6.118239
636.000000	6.121131
637.000000	6.123833
638.000000	6.126362
639.000000	6.128966
640.000000	6.131886
641.000000	6.135021
642.000000	6.138085
643.000000	6.140911
644.000000	6.143954
645.000000	6.147164
646.000000	6.150135
647.000000	6.153278
648.000000	6.156499
649.000000	6.159890
650.000000	6.163362
651.000000	6.166535
652.000000	6.169985
653.000000	6.173614
654.000000	6.176839
655.000000	6.179965
656.000000	6.183445
657.000000	6.187019
658.000000	6.190905
659.000000	6.194531
660.000000	6.197843
661.000000	6.201523
662.000000	6.205361
663.000000	6.209118
664.000000	6.213502
665.000000	6.217742
666.000000	6.221796
667.000000	6.226283
668.000000	6.230418
669.000000	6.234500
670.000000	6.238738
671.000000	6.243203
672.000000	6.247578
673.000000	6.251857
674.000000	6.255833
675.000000	6.259985
676.000000	6.264647
677.000000	6.268908
678.000000	6.273327
679.000000	6.277763
680.000000	6.282452
681.000000	6.286952
682.000000	6.291163
683.000000	6.296058
684.000000	6.301079
685.000000	6.306065
686.000000	6.346586
687.000000	6.387323
688.000000	6.428299
689.000000	6.469971
690.000000	6.511213
691.000000	6.552362
692.000000	6.593842
693.000000	6.635105
694.000000	6.676679
695.000000	6.718089
696.000000	6.723497
697.000000	6.729035
698.000000	6.734649
699.000000	6.739979
700.000000	6.745590
701.000000	6.751236
702.000000	6.756815
703.000000	6.762613
704.000000	6.767864
705.000000	6.773582
706.000000	6.779612
707.000000	6.785389
708.000000	6.791029
709.000000	6.796830
710.000000	6.802652
711.000000	6.808908
712.000000	6.815198
713.000000	6.821172
714.000000	6.827656
715.000000	6.834233
716.000000	6.840832
717.000000	6.847642
718.000000	6.854776
719.000000	6.861917
720.000000	6.869245
721.000000	6.876204
722.000000	6.883501
723.000000	6.891062
724.000000	6.898295
725.000000	6.905291
726.000000	6.912582
727.000000	6.920052
728.000000	6.927029
729.000000	6.934442
730.000000	6.941907
731.000000	6.949605
732.000000	6.957222
733.000000	6.964840
734.000000	6.973048
735.000000	6.981565
736.000000	7.025589
737.000000	7.069384
738.000000	7.113976
739.000000	7.158597
740.000000	7.203158
741.000000	7.247411
742.000000	7.291477
743.000000	7.335902
744.000000	7.380539
745.000000	7.425473
746.000000	7.434497
747.000000	7.443077
748.000000	7.451743
749.000000	7.461147
750.000000	7.470375
751.000000	7.479372
752.000000	7.488834
753.000000	7.498006
754.000000	7.507129
755.000000	7.516367
756.000000	7.525804
757.000000	7.536058
758.000000	7.545813
759.000000	7.554838
760.000000	7.564642
761.000000	7.575210
762.000000	7.585200
763.000000	7.595501
764.000000	7.606042
765.000000	7.616052
766.000000	7.626428
767.000000	7.636279
768.000000	7.646303
769.000000	7.657071
770.000000	7.668007
771.000000	7.678193
772.000000	7.724329
773.000000	7.770705
774.000000	7.817148
775.000000	7.864072
776.000000	7.911177
777.000000	7.958799
778.000000	8.006746
779.000000	8.054219
780.000000	8.100700
781.000000	8.148031
782.000000	8.159760
783.000000	8.171826
784.000000	8.183888
785.000000	8.195572
786.000000	8.207804
787.000000	8.219772
788.000000	8.231828
789.000000	8.243488
790.000000	8.254890
791.000000	8.267048
792.000000	8.279905
793.000000	8.292023
794.000000	8.303971
795.000000	8.316888
796.000000	8.329430
797.000000	8.341791
798.000000	8.354288
799.000000	8.367424
800.000000	8.381598
801.000000	8.395129
802.000000	8.408224
803.000000	8.422140
804.000000	8.472377
805.000000	8.485484
806.000000	8.534459
807.000000	8.584611
808.000000	8.635421
809.000000	8.685337
810.000000	8.735360
811.000000	8.786878
812.000000	8.839002
813.000000	8.890180
814.000000	8.905119
815.000000	8.956095
816.000000	8.970976
817.000000	8.985350
818.000000	8.998746
819.000000	9.014051
820.000000	9.029498
821.000000	9.042462
822.000000	9.055619
823.000000	9.069022
824.000000	9.083687
825.000000	9.098754
826.000000	9.115869
827.000000	9.132080
828.000000	9.148138
829.000000	9.162163
830.000000	9.176804
831.000000	9.192185
832.000000	9.205326
833.000000	9.221142
834.000000	9.235056
835.000000	9.249839
836.000000	9.262917
837.000000	9.276503
838.000000	9.289375
839.000000	9.301709
840.000000	9.312583
841.000000	9.328573
842.000000	9.345235
843.000000	9.355658
844.000000	9.369071
845.000000	9.376869
846.000000	9.420074
847.000000	9.426110
848.000000	9.434256
849.000000	9.482096
850.000000	9.525498
851.000000	9.562263
852.000000	9.603152
853.000000	9.652759
854.000000	9.684965
855.000000	9.687960
856.000000	9.689888
857.000000	9.754098
858.000000	10.123114
859.000000	10.177472
860.000000	10.213783
861.000000	10.304646
862.000000	10.343813
863.000000	10.379004
864.000000	10.430041
865.000000	10.517607
866.000000	10.597623
867.000000	10.629708
868.000000	10.358052
869.000000	10.363565
870.000000	10.393145
871.000000	10.346555
872.000000	10.349673
873.000000	10.354198
874.000000	10.359780
875.000000	10.365360
876.000000	10.320120
877.000000	10.299027
878.000000	10.302755
879.000000	10.282565
880.000000	10.262255
881.000000	10.266993
882.000000	10.297617
883.000000	10.303140
884.000000	10.283795
885.000000	10.262513
886.000000	10.292975
887.000000	10.298730
888.000000	10.277570
889.000000	10.281890
890.000000	10.286660
891.000000	10.291280
892.000000	10.246250
893.000000	10.225530
894.000000	10.228765
895.000000	10.258722
896.000000	10.237410
897.000000	10.267027
898.000000	10.273127
899.000000	10.277742
900.000000	10.281672
901.000000	10.287198
902.000000	10.315700
903.000000	10.319010
904.000000	10.347883
905.000000	10.350860
906.000000	10.380232
907.000000	10.383517
908.000000	10.412530
909.000000	10.442742
910.000000	10.472150
911.000000	10.500215
912.000000	10.529093
913.000000	10.558715
914.000000	10.562980
915.000000	10.567660
916.000000	10.571015
917.000000	10.573435
918.000000	10.600188
919.000000	10.602605
920.000000	10.606220
921.000000	10.609345
922.000000	10.613155
923.000000	10.641858
924.000000	10.669422
925.000000	10.697022
926.000000	10.723495
927.000000	10.752623
928.000000	10.755670
929.000000	10.781837
930.000000	10.809280
931.000000	10.836955
932.000000	10.863128
933.000000	10.888125
934.000000	10.915170
935.000000	10.941805
936.000000	10.969983
937.000000	10.996472
938.000000	11.023550
939.000000	11.049480
940.000000	11.074985
941.000000	11.099723
942.000000	11.125193
943.000000	11.150472
944.000000	11.175630
945.000000	11.199950
946.000000	11.224025
947.000000	11.247637
948.000000	11.271067
949.000000	11.297225
950.000000	11.323210
951.000000	11.349250
952.000000	11.375363
953.000000	11.402138
954.000000	11.427828
955.000000	11.454855
956.000000	11.481288
957.000000	11.507827
958.000000	11.535098
959.000000	11.559825
960.000000	11.584332
961.000000	11.609835
962.000000	11.635470
963.000000	11.660140
964.000000	11.684938
965.000000	11.709670
966.000000	11.734370
967.000000	11.759275
968.000000	11.783365
969.000000	11.833540
970.000000	11.883912
971.000000	11.934547
972.000000	11.984808
973.000000	12.010153
974.000000	12.035275
975.000000	12.085225
976.000000	12.135000
977.000000	12.184358
978.000000	12.234643
979.000000	12.260440
980.000000	12.284830
981.000000	12.307708
982.000000	12.330800
983.000000	12.380382
984.000000	12.430808
985.000000	12.456177
986.000000	12.481385
987.000000	12.507215
988.000000	12.532293
989.000000	12.556298
990.000000	12.580745
991.000000	12.606670
992.000000	12.633463
993.000000	12.658660
994.000000	12.682887
995.000000	12.707475
996.000000	12.732925
997.000000	12.758090
998.000000	12.783080
999.000000	12.808333
1000.000000	12.834718
1001.000000	12.860628
1002.000000	12.884918
1003.000000	12.909525
1004.000000	12.935120
1005.000000	12.959563
1006.000000	12.983370
1007.000000	13.007395
1008.000000	13.056835
1009.000000	13.107230
1010.000000	13.157095
1011.000000	13.206690
1012.000000	13.256437
1013.000000	13.306760
1014.000000	13.356900
1015.000000	13.407397
1016.000000	13.457978
1017.000000	13.508840
1018.000000	13.534780
1019.000000	13.559873
1020.000000	13.584797
1021.000000	13.610127
1022.000000	13.635485
1023.000000	13.661243
1024.000000	13.686837
1025.000000	13.712433
1026.000000	13.738452
1027.000000	13.764045
1028.000000	13.789030
1029.000000	13.813743
1030.000000	13.838878
1031.000000	13.863545
1032.000000	13.888977
1033.000000	13.913847
1034.000000	13.938372
1035.000000	13.963750
1036.000000	13.989052
1037.000000	14.014055
1038.000000	14.063880
1039.000000	14.089763
1040.000000	14.140650
1041.000000	14.191290
1042.000000	14.242088
1043.000000	14.292937
1044.000000	14.343748
1045.000000	14.394460
1046.000000	14.444795
1047.000000	14.494438
1048.000000	14.520090
1049.000000	14.571228
1050.000000	14.596793
1051.000000	14.622550
1052.000000	14.648402
1053.000000	14.674725
1054.000000	14.700753
1055.000000	14.726052
1056.000000	14.751548
1057.000000	14.778327
1058.000000	14.804485
1059.000000	14.829842
1060.000000	14.855782
1061.000000	14.881792
1062.000000	14.907075
1063.000000	14.931275
1064.000000	14.956568
1065.000000	14.982683
1066.000000	15.033135
1067.000000	15.083080
1068.000000	15.133160
1069.000000	15.183083
1070.000000	15.232330
1071.000000	15.281670
1072.000000	15.331400
1073.000000	15.381975
1074.000000	15.431893
1075.000000	15.481383
1076.000000	15.506825
1077.000000	15.532385
1078.000000	15.558280
1079.000000	15.583728
1080.000000	15.608165
1081.000000	15.632915
1082.000000	15.658553
1083.000000	15.684502
1084.000000	15.710005
1085.000000	15.735130
1086.000000	15.759905
1087.000000	15.785230
1088.000000	15.810072
1089.000000	15.834795
1090.000000	15.861305
1091.000000	15.888070
1092.000000	15.913340
1093.000000	15.937712
1094.000000	15.987770
1095.000000	16.038563
1096.000000	16.088015
1097.000000	16.137728
1098.000000	16.187470
1099.000000	16.237507
1100.000000	16.287680
1101.000000	16.336937
1102.000000	16.386637
1103.000000	16.436293
1104.000000	16.460687
1105.000000	16.484375
1106.000000	16.509548
1107.000000	16.534120
1108.000000	16.558842
1109.000000	16.583807
1110.000000	16.607458
1111.000000	16.632358
1112.000000	16.656507
1113.000000	16.680187
1114.000000	16.704698
1115.000000	16.729717
1116.000000	16.754550
1117.000000	16.779425
1118.000000	16.803303
1119.000000	16.851780
1120.000000	16.901155
1121.000000	16.949762
1122.000000	16.998840
1123.000000	17.047855
1124.000000	17.094707
1125.000000	17.140705
1126.000000	17.186460
1127.000000	17.232595
1128.000000	17.279843
1129.000000	17.300690
1130.000000	17.320897
1131.000000	17.339823
1132.000000	17.358038
1133.000000	17.377500
1134.000000	17.398785
1135.000000	17.419105
1136.000000	17.438930
1137.000000	17.456865
1138.000000	17.474205
1139.000000	17.492160
1140.000000	17.510237
1141.000000	17.528130
1142.000000	17.546470
1143.000000	17.564988
1144.000000	17.582035
1145.000000	17.599837
1146.000000	17.616428
1147.000000	17.634430
1148.000000	17.652860
1149.000000	17.671263
1150.000000	17.689330
1151.000000	17.733332
1152.000000	17.775720
1153.000000	17.817610
1154.000000	17.860582
1155.000000	17.901425
1156.000000	17.943460
1157.000000	17.984740
1158.000000	18.024572
1159.000000	18.063835
1160.000000	18.102087
1161.000000	18.114838
1162.000000	18.128710
1163.000000	18.140965
1164.000000	18.152165
1165.000000	18.164155
1166.000000	18.175548
1167.000000	18.186618
1168.000000	18.197188
1169.000000	18.208885
1170.000000	18.220345
1171.000000	18.232460
1172.000000	18.244842
1173.000000	18.256905
1174.000000	18.268167
1175.000000	18.280755
1176.000000	18.293913
1177.000000	18.307325
1178.000000	18.321660
1179.000000	18.336377
1180.000000	18.351328
1181.000000	18.365480
1182.000000	18.379525
1183.000000	18.394137
1184.000000	18.409620
1185.000000	18.424585
1186.000000	18.440600
1187.000000	18.457115
1188.000000	18.473188
1189.000000	18.488778
1190.000000	18.531080
1191.000000	18.575098
1192.000000	18.619905
1193.000000	18.666818
1194.000000	18.713665
1195.000000	18.761135
1196.000000	18.808968
1197.000000	18.855457
1198.000000	18.903497
1199.000000	18.952768
1200.000000	18.976777
1201.000000	19.000300
1202.000000	19.024522
1203.000000	19.047982
1204.000000	19.071280
1205.000000	19.094793
1206.000000	19.117395
1207.000000	19.142798
1208.000000	19.168065
1209.000000	19.192875
1210.000000	19.217010
1211.000000	19.241492
1212.000000	19.264430
1213.000000	19.287183
1214.000000	19.310167
1215.000000	19.332805
1216.000000	19.355955
1217.000000	19.403478
1218.000000	19.450308
1219.000000	19.497167
1220.000000	19.543202
1221.000000	19.587888
1222.000000	19.632708
1223.000000	19.677518
1224.000000	19.722620
1225.000000	19.766950
1226.000000	19.810085
1227.000000	19.827067
1228.000000	19.843718
1229.000000	19.860010
1230.000000	19.876650
1231.000000	19.892003
1232.000000	19.907015
1233.000000	19.921793
1234.000000	19.935935
1235.000000	19.950820
1236.000000	19.965380
1237.000000	19.979543
1238.000000	19.993940
1239.000000	20.007390
1240.000000	20.021100
1241.000000	20.036697
1242.000000	20.052037
1243.000000	20.067230
1244.000000	20.083400
1245.000000	20.099203
1246.000000	20.115465
1247.000000	20.132762
1248.000000	20.150900
1249.000000	20.170570
1250.000000	20.190192
1251.000000	20.235065
1252.000000	20.280415
1253.000000	20.326300
1254.000000	20.372597
1255.000000	20.419480
1256.000000	20.466475
1257.000000	20.513362
1258.000000	20.559775
1259.000000	20.605850
1260.000000	20.651592
1261.000000	20.670925
1262.000000	20.690285
1263.000000	20.708165
1264.000000	20.725350
1265.000000	20.742628
1266.000000	20.759103
1267.000000	20.775190
1268.000000	20.790107
1269.000000	20.803452
1270.000000	20.817210
1271.000000	20.831425
1272.000000	20.845630
1273.000000	20.859752
1274.000000	20.873393
1275.000000	20.886572
1276.000000	20.899685
1277.000000	20.912140
1278.000000	20.925042
1279.000000	20.938320
1280.000000	20.952522
1281.000000	20.967158
1282.000000	20.981405
1283.000000	21.020853
1284.000000	21.060673
1285.000000	21.100807
1286.000000	21.141203
1287.000000	21.182355
1288.000000	21.223727
1289.000000	21.264935
1290.000000	21.305283
1291.000000	21.346227
1292.000000	21.388168
1293.000000	21.404502
1294.000000	21.420378
1295.000000	21.435455
1296.000000	21.450280
1297.000000	21.464970
1298.000000	21.479363
1299.000000	21.493490
1300.000000	21.507925
1301.000000	21.521553
1302.000000	21.533667
1303.000000	21.546223
1304.000000	21.559437
1305.000000	21.572567
1306.000000	21.585010
1307.000000	21.597160
1308.000000	21.609400
1309.000000	21.621225
1310.000000	21.631725
1311.000000	21.641217
1312.000000	21.650287
1313.000000	21.659083
1314.000000	21.666712
1315.000000	21.673738
1316.000000	21.680938
1317.000000	21.686925
1318.000000	21.691758
1319.000000	21.696050
1320.000000	21.700337
1321.000000	21.705188
1322.000000	21.710590
1323.000000	21.715975
1324.000000	21.721198
1325.000000	21.726318
1326.000000	21.730777
1327.000000	21.735122
1328.000000	21.739385
1329.000000	21.743443
1330.000000	21.747200
1331.000000	21.749060
1332.000000	21.749517
1333.000000	21.749100
1334.000000	21.747505
1335.000000	21.745348
1336.000000	21.742898
1337.000000	21.739420
1338.000000	21.735467
1339.000000	21.732128
1340.000000	21.728307
1341.000000	21.723980
1342.000000	21.719175
1343.000000	21.713070
1344.000000	21.730915
1345.000000	21.723053
1346.000000	21.714748
1347.000000	21.705983
1348.000000	21.720900
1349.000000	21.732825
1350.000000	21.743002
1351.000000	21.750588
1352.000000	21.758142
1353.000000	21.767847
1354.000000	21.753830
1355.000000	21.764820
1356.000000	21.776082
1357.000000	21.761968
1358.000000	21.722625
1359.000000	21.686103
1360.000000	21.653220
1361.000000	21.623587
1362.000000	21.593218
1363.000000	21.562553
1364.000000	21.530607
1365.000000	21.496752
1366.000000	21.461633
1367.000000	21.450420
1368.000000	21.436338
1369.000000	21.417845
1370.000000	21.368092
1371.000000	21.309527
1372.000000	21.242530
1373.000000	21.164493
1374.000000	21.076168
1375.000000	20.978608
1376.000000	20.871707
1377.000000	20.729430
1378.000000	20.581042
1379.000000	20.426827
1380.000000	20.296805
1381.000000	20.172733
1382.000000	20.055265
1383.000000	19.946875
1384.000000	19.847222
1385.000000	19.759082
1386.000000	19.684373
1387.000000	19.650733
1388.000000	19.627020
1389.000000	19.613103
1390.000000	19.607795
1391.000000	19.608058
1392.000000	19.612825
1393.000000	19.621858
1394.000000	19.639923
1395.000000	19.659417
1396.000000	19.673850
1397.000000	19.683285
1398.000000	19.697370
1399.000000	19.715238
1400.000000	19.730150
1401.000000	19.737390
1402.000000	19.743102
1403.000000	19.745590
1404.000000	19.739500
1405.000000	19.728960
1406.000000	19.717897
1407.000000	19.707865
1408.000000	19.691158
1409.000000	19.666643
1410.000000	19.638488
1411.000000	19.611135
1412.000000	19.582950
1413.000000	19.553395
1414.000000	19.521043
1415.000000	19.488360
1416.000000	19.454142
1417.000000	19.420000
1418.000000	19.387860
1419.000000	19.356375
1420.000000	19.324623
1421.000000	19.295165
1422.000000	19.265418
1423.000000	19.235925
1424.000000	19.208648
1425.000000	19.182245
1426.000000	19.158690
1427.000000	19.110388
1428.000000	19.060205
1429.000000	19.011670
1430.000000	18.966703
1431.000000	18.921872
1432.000000	18.876935
1433.000000	18.833280
1434.000000	18.790745
1435.000000	18.751188
1436.000000	18.711630
1437.000000	18.697465
1438.000000	18.684618
1439.000000	18.673653
1440.000000	18.661003
1441.000000	18.649505
1442.000000	18.637567
1443.000000	18.625580
1444.000000	18.616733
1445.000000	18.607662
1446.000000	18.597585
1447.000000	18.586180
1448.000000	18.575660
1449.000000	18.565810
1450.000000	18.556150
1451.000000	18.547170
1452.000000	18.538450
1453.000000	18.529765
1454.000000	18.519310
1455.000000	18.506250
1456.000000	18.494555
1457.000000	18.484600
1458.000000	18.473715
1459.000000	18.461697
1460.000000	18.449583
1461.000000	18.436700
1462.000000	18.424898
1463.000000	18.411437
1464.000000	18.399720
1465.000000	18.389350
1466.000000	18.379292
1467.000000	18.366350
1468.000000	18.354318
1469.000000	18.342987
1470.000000	18.333380
1471.000000	18.323762
1472.000000	18.313207
1473.000000	18.304317
1474.000000	18.293167
1475.000000	18.282205
1476.000000	18.273108
1477.000000	18.265270
1478.000000	18.257727
1479.000000	18.249547
1480.000000	18.239840
1481.000000	18.230443
1482.000000	18.221983
1483.000000	18.213358
1484.000000	18.204938
1485.000000	18.197132
1486.000000	18.188860
1487.000000	18.181735
1488.000000	18.173965
1489.000000	18.165390
1490.000000	18.157370
1491.000000	18.150720
1492.000000	18.145415
1493.000000	18.141220
1494.000000	18.137685
1495.000000	18.134278
1496.000000	18.130125
1497.000000	18.127705
1498.000000	18.127012
1499.000000	18.128790
1500.000000	18.132938
1501.000000	18.137982
1502.000000	18.143307
1503.000000	18.150282
1504.000000	18.159443
1505.000000	18.169908
1506.000000	18.182025
1507.000000	18.194935
1508.000000	18.208813
1509.000000	18.223330
1510.000000	18.238130
1511.000000	18.253250
1512.000000	18.269928
1513.000000	18.285950
1514.000000	18.301830
1515.000000	18.318213
1516.000000	18.336075
1517.000000	18.353280
1518.000000	18.370342
1519.000000	18.387105
1520.000000	18.403317
1521.000000	18.419792
1522.000000	18.435605
1523.000000	18.451822
1524.000000	18.467118
1525.000000	18.481842
1526.000000	18.495123
1527.000000	18.509310
1528.000000	18.523847
1529.000000	18.538852
1530.000000	18.554410
1531.000000	18.568620
1532.000000	18.582182
1533.000000	18.619598
1534.000000	18.656992
1535.000000	18.695200
1536.000000	18.734515
1537.000000	18.772813
1538.000000	18.809800
1539.000000	18.845773
1540.000000	18.880883
1541.000000	18.916375
1542.000000	18.952055
1543.000000	18.962477
1544.000000	18.973500
1545.000000	18.985655
1546.000000	18.997937
1547.000000	19.010670
1548.000000	19.025527
1549.000000	19.041357
1550.000000	19.057347
1551.000000	19.074390
1552.000000	19.092543
1553.000000	19.112337
1554.000000	19.132938
1555.000000	19.152283
1556.000000	19.170105
1557.000000	19.186647
1558.000000	19.200972
1559.000000	19.214045
1560.000000	19.227270
1561.000000	19.239070
1562.000000	19.248565
1563.000000	19.255505
1564.000000	19.259975
1565.000000	19.262482
1566.000000	19.264125
1567.000000	19.265645
1568.000000	19.267145
1569.000000	19.268025
1570.000000	19.267557
1571.000000	19.266102
1572.000000	19.264710
1573.000000	19.263372
1574.000000	19.262125
1575.000000	19.262030
1576.000000	19.263133
1577.000000	19.265295
1578.000000	19.267570
1579.000000	19.269435
1580.000000	19.272673
1581.000000	19.277468
1582.000000	19.283612
1583.000000	19.291412
1584.000000	19.301655
1585.000000	19.312447
1586.000000	19.323017
1587.000000	19.332873
1588.000000	19.343670
1589.000000	19.356963
1590.000000	19.370372
1591.000000	19.383450
1592.000000	19.396915
1593.000000	19.435943
1594.000000	19.474105
1595.000000	19.511478
1596.000000	19.548680
1597.000000	19.587410
1598.000000	19.627468
1599.000000	19.666882
1600.000000	19.706715
1601.000000	19.747170
1602.000000	19.787622
1603.000000	19.802895
1604.000000	19.818950
1605.000000	19.836092
1606.000000	19.854060
1607.000000	19.871317
1608.000000	19.887553
1609.000000	19.903475
1610.000000	19.918852
1611.000000	19.933488
1612.000000	19.948400
1613.000000	19.962620
1614.000000	19.975878
1615.000000	19.988220
1616.000000	19.999288
1617.000000	20.010170
1618.000000	20.020135
1619.000000	20.029667
1620.000000	20.038677
1621.000000	20.047115
1622.000000	20.054465
1623.000000	20.061700
1624.000000	20.069358
1625.000000	20.077298
1626.000000	20.085895
1627.000000	20.093985
1628.000000	20.102093
1629.000000	20.110770
1630.000000	20.120607
1631.000000	20.130538
1632.000000	20.139900
1633.000000	20.149198
1634.000000	20.157930
1635.000000	20.166750
1636.000000	20.175317
1637.000000	20.182943
1638.000000	20.189647
1639.000000	20.195345
1640.000000	20.200460
1641.000000	20.205860
1642.000000	20.211237
1643.000000	20.215252
1644.000000	20.218713
1645.000000	20.221038
1646.000000	20.223188
1647.000000	20.225183
1648.000000	20.226875
1649.000000	20.228730
1650.000000	20.228940
1651.000000	20.227555
1652.000000	20.224710
1653.000000	20.221825
1654.000000	20.217492
1655.000000	20.210535
1656.000000	20.202407
1657.000000	20.194405
1658.000000	20.184740
1659.000000	20.172458
1660.000000	20.158403
1661.000000	20.142378
1662.000000	20.124300
1663.000000	20.104472
1664.000000	20.082768
1665.000000	20.061087
1666.000000	20.036423
1667.000000	20.009583
1668.000000	19.978175
1669.000000	19.944958
1670.000000	19.909255
1671.000000	19.871730
1672.000000	19.833470
1673.000000	19.793388
1674.000000	19.751225
1675.000000	19.706423
1676.000000	19.635385
1677.000000	19.563192
1678.000000	19.492422
1679.000000	19.420262
1680.000000	19.347258
1681.000000	19.273270
1682.000000	19.197832
1683.000000	19.121878
1684.000000	19.046187
1685.000000	18.971847
1686.000000	18.925065
1687.000000	18.879037
1688.000000	18.838175
1689.000000	18.801317
1690.000000	18.771427
1691.000000	18.748740
1692.000000	18.733615
1693.000000	18.724245
1694.000000	18.721480
1695.000000	18.723650
1696.000000	18.729142
1697.000000	18.737968
1698.000000	18.746925
1699.000000	18.757065
1700.000000	18.766198
1701.000000	18.773900
1702.000000	18.780587
1703.000000	18.785793
1704.000000	18.789230
1705.000000	18.790517
1706.000000	18.789478
1707.000000	18.787340
1708.000000	18.783328
1709.000000	18.776058
1710.000000	18.765520
1711.000000	18.751875
1712.000000	18.733430
1713.000000	18.712962
1714.000000	18.686835
1715.000000	18.632617
1716.000000	18.574505
1717.000000	18.512903
1718.000000	18.449295
1719.000000	18.383930
1720.000000	18.317845
1721.000000	18.252457
1722.000000	18.189545
1723.000000	18.128318
1724.000000	18.071370
1725.000000	18.044285
1726.000000	18.023397
1727.000000	18.006722
1728.000000	17.995632
1729.000000	17.989310
1730.000000	17.986393
1731.000000	17.986755
1732.000000	17.989100
1733.000000	17.993958
1734.000000	18.002260
1735.000000	18.011050
1736.000000	18.022043
1737.000000	18.034372
1738.000000	18.046442
1739.000000	18.060100
1740.000000	18.077055
1741.000000	18.095730
1742.000000	18.114368
1743.000000	18.134333
1744.000000	18.153030
1745.000000	18.173018
1746.000000	18.191962
1747.000000	18.210865
1748.000000	18.254885
1749.000000	18.299197
1750.000000	18.340893
1751.000000	18.380945
1752.000000	18.419978
1753.000000	18.457555
1754.000000	18.494520
1755.000000	18.529953
1756.000000	18.563413
1757.000000	18.595075
1758.000000	18.601385
1759.000000	18.606235
1760.000000	18.611033
1761.000000	18.616250
1762.000000	18.622860
1763.000000	18.627855
1764.000000	18.633817
1765.000000	18.639080
1766.000000	18.645355
1767.000000	18.653330
1768.000000	18.661423
1769.000000	18.671035
1770.000000	18.682057
1771.000000	18.692522
1772.000000	18.703228
1773.000000	18.714810
1774.000000	18.726195
1775.000000	18.739138
1776.000000	18.751963
1777.000000	18.764688
1778.000000	18.777962
1779.000000	18.789997
1780.000000	18.801215
1781.000000	18.811990
1782.000000	18.821997
1783.000000	18.831602
1784.000000	18.840398
1785.000000	18.848372
1786.000000	18.855348
1787.000000	18.860663
1788.000000	18.864370
1789.000000	18.868092
1790.000000	18.870883
1791.000000	18.873197
1792.000000	18.875600
1793.000000	18.878068
1794.000000	18.880707
1795.000000	18.882478
1796.000000	18.884432
1797.000000	18.886580
1798.000000	18.888505
1799.000000	18.891647
1800.000000	18.895645
1801.000000	18.899040
1802.000000	18.901273
1803.000000	18.903265
1804.000000	18.906348
1805.000000	18.910640
1806.000000	18.914520
1807.000000	18.918200
1808.000000	18.946570
1809.000000	18.948668
1810.000000	18.951065
1811.000000	18.979710
1812.000000	19.009560
1813.000000	19.039700
1814.000000	19.068990
1815.000000	19.097135
1816.000000	19.123268
1817.000000	19.147737
1818.000000	19.147900
1819.000000	19.175252
1820.000000	19.203090
1821.000000	19.205175
1822.000000	19.206195
1823.000000	19.206230
1824.000000	19.204702
1825.000000	19.202728
1826.000000	19.202180
1827.000000	19.204518
1828.000000	19.208742
1829.000000	19.212395
1830.000000	19.214927
1831.000000	19.216127
1832.000000	19.217167
1833.000000	19.220085
1834.000000	19.225808
1835.000000	19.231985
1836.000000	19.238022
1837.000000	19.242933
1838.000000	19.247870
1839.000000	19.254607
1840.000000	19.263013
1841.000000	19.273692
1842.000000	19.282598
1843.000000	19.288725
1844.000000	19.292668
1845.000000	19.296498
1846.000000	19.303438
1847.000000	19.311900
1848.000000	19.317927
1849.000000	19.319637
1850.000000	19.318572
1851.000000	19.315015
1852.000000	19.313615
1853.000000	19.314135
1854.000000	19.312965
1855.000000	19.311092
1856.000000	19.305987
1857.000000	19.297105
1858.000000	19.288030
1859.000000	19.278607
1860.000000	19.268037
1861.000000	19.257795
1862.000000	19.244435
1863.000000	19.227533
1864.000000	19.209358
1865.000000	19.187120
1866.000000	19.163485
1867.000000	19.137550
1868.000000	19.107558
1869.000000	19.074867
1870.000000	19.039220
1871.000000	18.999890
1872.000000	18.960952
1873.000000	18.895148
1874.000000	18.827712
1875.000000	18.760670
1876.000000	18.691150
1877.000000	18.619830
1878.000000	18.544493
1879.000000	18.464953
1880.000000	18.355770
1881.000000	18.241962
1882.000000	18.123217
1883.000000	18.025135
1884.000000	17.918765
1885.000000	17.804525
1886.000000	17.683677
1887.000000	17.557695
1888.000000	17.401307
1889.000000	17.240607
1890.000000	17.100437
1891.000000	16.956117
1892.000000	16.805163
1893.000000	16.649228
1894.000000	16.493143
1895.000000	16.312053
1896.000000	16.130052
1897.000000	15.944903
1898.000000	15.785618
1899.000000	15.624240
1900.000000	15.463793
1901.000000	15.280860
1902.000000	15.101540
1903.000000	14.925455
1904.000000	14.752982
1905.000000	14.607420
1906.000000	14.463738
1907.000000	14.300700
1908.000000	14.143473
1909.000000	13.993370
1910.000000	13.847668
1911.000000	13.732310
1912.000000	13.620995
1913.000000	13.514283
1914.000000	13.385362
1915.000000	13.261365
1916.000000	13.142435
1917.000000	13.052013
1918.000000	12.964752
1919.000000	12.881023
1920.000000	12.801440
1921.000000	12.722865
1922.000000	12.648625
1923.000000	12.577645
1924.000000	12.510687
1925.000000	12.446912
1926.000000	12.387180
1927.000000	12.330570
1928.000000	12.276560
1929.000000	12.225940
1930.000000	12.178718
1931.000000	12.134607
1932.000000	12.092370
1933.000000	12.052215
1934.000000	12.040175
1935.000000	12.030950
1936.000000	12.022880
1937.000000	12.017428
1938.000000	12.015503
1939.000000	12.014568
1940.000000	12.016380
1941.000000	12.020955
1942.000000	12.027348
1943.000000	12.036080
1944.000000	12.046900
1945.000000	12.059098
1946.000000	12.072870
1947.000000	12.088845
1948.000000	12.105028
1949.000000	12.122082
1950.000000	12.139345
1951.000000	12.158320
1952.000000	12.178508
1953.000000	12.200655
1954.000000	12.222340
1955.000000	12.245000
1956.000000	12.268647
1957.000000	12.292175
1958.000000	12.315425
1959.000000	12.364253
1960.000000	12.414717
1961.000000	12.463667
1962.000000	12.512277
1963.000000	12.559370
1964.000000	12.607170
1965.000000	12.654200
1966.000000	12.701002
1967.000000	12.749273
1968.000000	12.796607
1969.000000	12.819717
1970.000000	12.839605
1971.000000	12.860650
1972.000000	12.881745
1973.000000	12.903188
1974.000000	12.923680
1975.000000	12.945075
1976.000000	12.966908
1977.000000	12.987393
1978.000000	13.009295
1979.000000	13.030717
1980.000000	13.052697
1981.000000	13.074758
1982.000000	13.122242
1983.000000	13.171055
1984.000000	13.221070
1985.000000	13.269735
1986.000000	13.318515
1987.000000	13.366338
1988.000000	13.414375
1989.000000	13.463268
1990.000000	13.512662
1991.000000	13.562027
1992.000000	13.584303
1993.000000	13.605445
1994.000000	13.625488
1995.000000	13.645442
1996.000000	13.665202
1997.000000	13.684915
1998.000000	13.702625
1999.000000	13.717805
2000.000000	13.732497
2001.000000	13.746267
2002.000000	13.760153
2003.000000	13.772630
2004.000000	13.783967
2005.000000	13.793600
2006.000000	13.801345
2007.000000	13.807768
2008.000000	13.813985
2009.000000	13.843700
2010.000000	13.871630
2011.000000	13.897520
2012.000000	13.897023
2013.000000	13.920513
2014.000000	13.918142
2015.000000	13.939363
2016.000000	13.958850
2017.000000	13.976988
2018.000000	13.993443
2019.000000	13.958638
2020.000000	13.921333
2021.000000	13.908080
2022.000000	13.893342
2023.000000	13.851407
2024.000000	13.832860
2025.000000	13.788010
2026.000000	13.741430
2027.000000	13.694262
2028.000000	13.645048
2029.000000	13.619460
2030.000000	13.594645
2031.000000	13.542628
2032.000000	13.515133
2033.000000	13.485910
2034.000000	13.455650
2035.000000	13.425420
2036.000000	13.394095
2037.000000	13.360190
2038.000000	13.325518
2039.000000	13.289663
2040.000000	13.252165
2041.000000	13.214823
2042.000000	13.176303
2043.000000	13.138135
2044.000000	13.098930
2045.000000	13.058117
2046.000000	13.018328
2047.000000	12.980080
2048.000000	12.941865
2049.000000	12.906110
2050.000000	12.872180
2051.000000	12.840065
2052.000000	12.811312
2053.000000	12.760410
2054.000000	12.712543
2055.000000	12.670220
2056.000000	12.656940
2057.000000	12.647175
2058.000000	12.642453
2059.000000	12.642145
2060.000000	12.645748
2061.000000	12.653533
2062.000000	12.664025
2063.000000	12.703123
2064.000000	12.745802
2065.000000	12.790720
2066.000000	12.812825
2067.000000	12.837965
2068.000000	12.865100
2069.000000	12.892558
2070.000000	12.919870
2071.000000	12.947343
2072.000000	12.976368
2073.000000	13.003930
2074.000000	13.055537
2075.000000	13.106348
2076.000000	13.156095
2077.000000	13.203913
2078.000000	13.249833
2079.000000	13.294720
2080.000000	13.339735
2081.000000	13.383530
2082.000000	13.424668
2083.000000	13.465172
2084.000000	13.479540
2085.000000	13.491985
2086.000000	13.501497
2087.000000	13.508923
2088.000000	13.514443
2089.000000	13.517437
2090.000000	13.518518
2091.000000	13.518215
2092.000000	13.516768
2093.000000	13.514478
2094.000000	13.511370
2095.000000	13.506535
2096.000000	13.501435
2097.000000	13.496000
2098.000000	13.491130
2099.000000	13.487425
2100.000000	13.482660
2101.000000	13.476705
2102.000000	13.470925
2103.000000	13.464825
2104.000000	13.458010
2105.000000	13.451770
2106.000000	13.446048
2107.000000	13.441298
2108.000000	13.435945
2109.000000	13.428085
2110.000000	13.420035
2111.000000	13.412858
2112.000000	13.430048
2113.000000	13.447147
2114.000000	13.440082
2115.000000	13.456938
2116.000000	13.472495
2117.000000	13.461580
2118.000000	13.474562
2119.000000	13.463600
2120.000000	13.452072
2121.000000	13.439050
2122.000000	13.400317
2123.000000	13.360028
2124.000000	13.368580
2125.000000	13.326048
2126.000000	13.283128
2127.000000	13.265610
2128.000000	13.223070
2129.000000	13.203735
2130.000000	13.183270
2131.000000	13.161705
2132.000000	13.139177
2133.000000	13.116248
2134.000000	13.066835
2135.000000	13.042877
2136.000000	13.018437
2137.000000	12.992118
2138.000000	12.964952
2139.000000	12.937072
2140.000000	12.909092
2141.000000	12.881825
2142.000000	12.853865
2143.000000	12.825303
2144.000000	12.795852
2145.000000	12.766685
2146.000000	12.736963
2147.000000	12.706320
2148.000000	12.648657
2149.000000	12.591960
2150.000000	12.535935
2151.000000	12.479855
2152.000000	12.424133
2153.000000	12.368258
2154.000000	12.312703
2155.000000	12.256452
2156.000000	12.201422
2157.000000	12.147828
2158.000000	12.120927
2159.000000	12.093745
2160.000000	12.066923
2161.000000	12.041010
2162.000000	11.990422
2163.000000	11.967128
2164.000000	11.919990
2165.000000	11.899648
2166.000000	11.855535
2167.000000	11.812043
2168.000000	11.769670
2169.000000	11.728590
2170.000000	11.689495
2171.000000	11.650923
2172.000000	11.612935
2173.000000	11.549565
2174.000000	11.537690
2175.000000	11.501300
2176.000000	11.465300
2177.000000	11.429388
2178.000000	11.394147
2179.000000	11.359117
2180.000000	11.322778
2181.000000	11.285700
2182.000000	11.273345
2183.000000	11.260592
2184.000000	11.220535
2185.000000	11.153945
2186.000000	11.109908
2187.000000	11.062805
2188.000000	11.013485
2189.000000	10.961188
2190.000000	10.905415
2191.000000	10.847058
2192.000000	10.784685
2193.000000	10.694548
2194.000000	10.601508
2195.000000	10.528360
2196.000000	10.452558
2197.000000	10.349808
2198.000000	10.243272
2199.000000	10.135008
2200.000000	10.023708
2201.000000	9.911848
2202.000000	9.800323
2203.000000	9.714102
2204.000000	9.629150
2205.000000	9.521962
2206.000000	9.418382
2207.000000	9.344092
2208.000000	9.275670
2209.000000	9.212777
2210.000000	9.157685
2211.000000	9.108135
2212.000000	9.066073
2213.000000	9.029655
2214.000000	9.000888
2215.000000	9.003695
2216.000000	9.011608
2217.000000	9.025280
2218.000000	9.043605
2219.000000	9.067315
2220.000000	9.095803
2221.000000	9.125665
2222.000000	9.157485
2223.000000	9.216378
2224.000000	9.275495
2225.000000	9.334855
2226.000000	9.393668
2227.000000	9.451345
2228.000000	9.508805
2229.000000	9.563275
2230.000000	9.614510
2231.000000	9.665492
2232.000000	9.713387
2233.000000	9.733265
2234.000000	9.749888
2235.000000	9.765417
2236.000000	9.777762
2237.000000	9.787465
2238.000000	9.793345
2239.000000	9.821335
2240.000000	9.821813
2241.000000	9.845220
2242.000000	9.866540
2243.000000	9.885943
2244.000000	9.903510
2245.000000	9.917823
2246.000000	9.930718
2247.000000	9.940560
2248.000000	9.925145
2249.000000	9.907903
2250.000000	9.915612
2251.000000	9.871288
2252.000000	9.826260
2253.000000	9.804583
2254.000000	9.758645
2255.000000	9.713537
2256.000000	9.668758
2257.000000	9.650602
2258.000000	9.631623
2259.000000	9.614460
2260.000000	9.598358
2261.000000	9.608822
2262.000000	9.621565
2263.000000	9.612290
2264.000000	9.628115
2265.000000	9.646362
2266.000000	9.666353
2267.000000	9.664248
2268.000000	9.689042
2269.000000	9.691982
2270.000000	9.695112
2271.000000	9.700782
2272.000000	9.732262
2273.000000	9.765135
2274.000000	9.799545
2275.000000	9.833758
2276.000000	9.869520
2277.000000	9.904585
2278.000000	9.914957
2279.000000	9.949662
2280.000000	9.985138
2281.000000	10.019630
2282.000000	10.029232
2283.000000	10.037072
2284.000000	10.044825
2285.000000	10.076525
2286.000000	10.082745
2287.000000	10.113975
2288.000000	10.169718
2289.000000	10.199927
2290.000000	10.229288
2291.000000	10.258715
2292.000000	10.287990
2293.000000	10.317502
2294.000000	10.347085
2295.000000	10.352898
2296.000000	10.383260
2297.000000	10.388388
2298.000000	10.419150
2299.000000	10.425733
2300.000000	10.433620
2301.000000	10.441625
2302.000000	10.475022
2303.000000	10.509235
2304.000000	10.543560
2305.000000	10.578140
2306.000000	10.614185
2307.000000	10.651642
2308.000000	10.664228
2309.000000	10.701800
2310.000000	10.740145
2311.000000	10.778132
2312.000000	10.792210
2313.000000	10.806743
2314.000000	10.821662
2315.000000	10.837442
2316.000000	10.876645
2317.000000	10.915365
2318.000000	10.929298
2319.000000	10.967430
2320.000000	11.003463
2321.000000	11.039740
2322.000000	11.074882
2323.000000	11.108833
2324.000000	11.141913
2325.000000	11.172577
2326.000000	11.177463
2327.000000	11.205693
2328.000000	11.233495
2329.000000	11.260955
2330.000000	11.288317
2331.000000	11.314562
2332.000000	11.314672
2333.000000	11.315278
2334.000000	11.340275
2335.000000	11.365782
2336.000000	11.366730
2337.000000	11.368267
2338.000000	11.394130
2339.000000	11.394482
2340.000000	11.395743
2341.000000	11.396825
2342.000000	11.423215
2343.000000	11.449790
2344.000000	11.451360
2345.000000	11.453200
2346.000000	11.480480
2347.000000	11.482347
2348.000000	11.485440
2349.000000	11.489258
2350.000000	11.492480
2351.000000	11.521085
2352.000000	11.549520
2353.000000	11.578262
2354.000000	11.608385
2355.000000	11.612917
2356.000000	11.642442
2357.000000	11.672718
2358.000000	11.701718
2359.000000	11.730955
2360.000000	11.760922
2361.000000	11.765807
2362.000000	11.770653
2363.000000	11.775737
2364.000000	11.805587
2365.000000	11.859953
2366.000000	11.888827
2367.000000	11.918195
2368.000000	11.948205
2369.000000	11.952153
2370.000000	11.956040
2371.000000	11.960635
2372.000000	11.965028
2373.000000	11.968690
2374.000000	11.972530
2375.000000	11.977188
2376.000000	11.981825
2377.000000	11.960648
2378.000000	11.964398
2379.000000	11.994003
2380.000000	11.998143
2381.000000	12.001682
2382.000000	12.030162
2383.000000	12.033072
2384.000000	12.009647
2385.000000	11.986220
2386.000000	11.988095
2387.000000	12.014357
2388.000000	12.014880
2389.000000	12.014825
2390.000000	12.038540
2391.000000	12.062150
2392.000000	12.060612
2393.000000	12.058628
2394.000000	12.081898
2395.000000	12.104760
2396.000000	12.101452
2397.000000	12.097440
2398.000000	12.093505
2399.000000	12.088832
2400.000000	12.084030
2401.000000	12.078473
2402.000000	12.097307
2403.000000	12.140965
2404.000000	12.134267
2405.000000	12.125877
2406.000000	12.142485
2407.000000	12.159113
2408.000000	12.150137
2409.000000	12.166242
2410.000000	12.156477
2411.000000	12.170745
2412.000000	12.160042
2413.000000	12.123772
2414.000000	12.111712
2415.000000	12.099943
2416.000000	12.087053
2417.000000	12.072883
2418.000000	12.058065
2419.000000	12.042395
2420.000000	12.052365
2421.000000	12.063107
2422.000000	12.022325
2423.000000	12.056303
2424.000000	12.065403
2425.000000	12.075090
2426.000000	12.034707
2427.000000	11.994407
2428.000000	12.003063
2429.000000	12.011435
2430.000000	11.995178
2431.000000	11.928183
2432.000000	11.961432
2433.000000	11.944297
2434.000000	11.926650
2435.000000	11.881303
2436.000000	11.885347
2437.000000	11.890052
2438.000000	11.870145
2439.000000	11.824718
2440.000000	11.828790
2441.000000	11.857300
2442.000000	11.786495
2443.000000	11.739797
2444.000000	11.742420
2445.000000	11.771315
2446.000000	11.775998
2447.000000	11.779450
2448.000000	11.807573
2449.000000	11.811272
2450.000000	11.814187
2451.000000	11.817782
2452.000000	11.921830
2453.000000	11.951342
2454.000000	11.955953
2455.000000	11.935892
2456.000000	11.941372
2457.000000	11.949140
2458.000000	11.981683
2459.000000	12.014553
2460.000000	12.048517
2461.000000	12.007625
2462.000000	11.991720
2463.000000	12.027773
2464.000000	12.090180
2465.000000	12.178293
2466.000000	12.216905
2467.000000	12.279120
2468.000000	12.318990
2469.000000	12.335135
2470.000000	12.425562
2471.000000	12.517515
2472.000000	12.561697
2473.000000	12.580118
2474.000000	12.697778
2475.000000	12.743023
2476.000000	12.836778
2477.000000	12.907372
2478.000000	13.004525
2479.000000	13.125330
2480.000000	13.146058
2481.000000	13.267753
2482.000000	13.389505
2483.000000	13.588137
2484.000000	13.609892
2485.000000	13.806115
2486.000000	13.955775
2487.000000	14.106385
2488.000000	14.229147
2489.000000	14.402695
2490.000000	14.580382
2491.000000	14.856262
2492.000000	14.957603
2493.000000	15.131145
2494.000000	15.283513
2495.000000	15.408573
2496.000000	15.434585
2497.000000	15.633125
2498.000000	15.808018
2499.000000	15.982587
2500.000000	16.114323
2501.000000	19.868338
2502.000000	23.570477
2503.000000	27.749782
2504.000000	32.003912
2505.000000	36.184362
2506.000000	40.387615
2507.000000	44.517620
2508.000000	48.747612
2509.000000	52.653515
2510.000000	56.800000
2511.000000	57.500000
2512.000000	58.300000
2513.000000	59.500000
2514.000000	60.000000
2515.000000	60.700000
2516.000000	61.100000
2517.000000	62.000000
2518.000000	62.200000
2519.000000	63.500000
2520.000000	64.800000
2521.000000	65.600000
2522.000000	66.700000
2523.000000	67.300000
2524.000000	68.400000
2525.000000	69.300000
2526.000000	70.600000
2527.000000	71.400000
2528.000000	72.600000
2529.000000	73.300000
2530.000000	74.100000
2531.000000	75.800000
2532.000000	76.600000
2533.000000	77.300000
2534.000000	78.300000
2535.000000	79.900000
2536.000000	80.700000
2537.000000	81.100000
2538.000000	81.700000
2539.000000	82.000000
2540.000000	82.500000
2541.000000	82.400000
2542.000000	83.200000
2543.000000	83.300000
2544.000000	83.500000
2545.000000	83.100000
2546.000000	83.600000
2547.000000	84.200000
2548.000000	84.500000
2549.000000	85.200000
2550.000000	85.100000
2551.000000	85.200000
2552.000000	85.600000
2553.000000	86.100000
2554.000000	85.900000
2555.000000	86.000000
2556.000000	86.600000
2557.000000	87.600000
2558.000000	88.900000
2559.000000	89.500000
2560.000000	90.500000
2561.000000	91.200000
2562.000000	91.800000
2563.000000	91.900000
2564.000000	92.500000
2565.000000	93.100000
2566.000000	93.600000
2567.000000	93.500000
2568.000000	93.800000
2569.000000	94.000000
2570.000000	94.500000
2571.000000	95.000000
2572.000000	95.300000
2573.000000	96.300000
2574.000000	97.200000
2575.000000	97.500000
2576.000000	97.300000
2577.000000	98.000000
2578.000000	97.900000
2579.000000	98.700000
2580.000000	99.400000
2581.000000	99.300000
2582.000000	98.400000
2583.000000	97.500000
2584.000000	97.500000
2585.000000	98.000000
2586.000000	98.300000
2587.000000	97.800000
2588.000000	97.500000
2589.000000	96.900000
2590.000000	96.300000
2591.000000	96.700000
2592.000000	97.900000
2593.000000	99.100000
2594.000000	99.400000
2595.000000	99.000000
2596.000000	99.400000
2597.000000	100.500000
2598.000000	101.500000
2599.000000	102.100000
2600.000000	102.200000
2601.000000	102.500000
2602.000000	102.800000
2603.000000	103.100000
2604.000000	103.500000
2605.000000	103.700000
2606.000000	102.800000
2607.000000	102.000000
2608.000000	101.600000
2609.000000	101.000000
2610.000000	101.200000
2611.000000	101.600000
2612.000000	101.300000
2613.000000	100.500000
2614.000000	99.900000
2615.000000	100.100000
2616.000000	100.700000
2617.000000	100.600000
2618.000000	100.500000
2619.000000	101.300000
2620.000000	101.200000
2621.000000	100.300000
2622.000000	99.500000
2623.000000	99.000000
2624.000000	98.800000
2625.000000	99.000000
2626.000000	98.700000
2627.000000	99.000000
2628.000000	99.300000
2629.000000	98.500000
2630.000000	98.100000
2631.000000	98.400000
2632.000000	99.000000
2633.000000	99.500000
2634.000000	99.500000
2635.000000	99.300000
2636.000000	99.600000
2637.000000	99.500000
2638.000000	99.200000
2639.000000	99.500000
2640.000000	100.000000
2641.000000	100.100000
2642.000000	99.400000
2643.000000	99.700000
2644.000000	99.600000
2645.000000	99.200000
2646.000000	99.500000
2647.000000	99.700000
2648.000000	99.700000
2649.000000	100.100000
2650.000000	100.500000
2651.000000	101.500000
2652.000000	102.400000
2653.000000	102.200000
2654.000000	102.600000
2655.000000	102.800000
2656.000000	103.000000
2657.000000	103.300000
2658.000000	103.100000
2659.000000	103.100000
2660.000000	103.200000
2661.000000	102.800000
2662.000000	103.300000
2663.000000	103.600000
2664.000000	103.700000
2665.000000	103.700000
2666.000000	102.900000
2667.000000	103.500000
2668.000000	104.200000
2669.000000	104.400000
2670.000000	103.800000
2671.000000	103.100000
2672.000000	102.200000
2673.000000	101.600000
2674.000000	101.300000
2675.000000	101.600000
2676.000000	102.400000
2677.000000	101.500000
2678.000000	101.400000
2679.000000	102.500000
2680.000000	103.300000
2681.000000	103.600000
2682.000000	103.900000
2683.000000	104.400000
2684.000000	104.000000
2685.000000	103.600000
2686.000000	102.900000
2687.000000	102.500000
2688.000000	102.400000
2689.000000	101.500000
2690.000000	100.800000
2691.000000	100.300000
2692.000000	99.500000
2693.000000	99.700000
2694.000000	100.000000
2695.000000	99.900000
2696.000000	100.100000
2697.000000	100.800000
2698.000000	100.400000
2699.000000	99.700000
2700.000000	99.500000
2701.000000	100.200000
2702.000000	100.700000
2703.000000	101.700000
2704.000000	101.700000
2705.000000	103.000000
2706.000000	102.500000
2707.000000	102.200000
2708.000000	101.800000
2709.000000	102.700000
2710.000000	102.800000
2711.000000	102.200000
2712.000000	102.000000
2713.000000	100.800000
2714.000000	101.400000
2715.000000	101.000000
2716.000000	101.700000
2717.000000	102.400000
2718.000000	103.400000
2719.000000	102.300000
2720.000000	101.700000
2721.000000	102.100000
2722.000000	102.500000
2723.000000	102.500000
2724.000000	102.300000
2725.000000	101.700000
2726.000000	101.100000
2727.000000	101.000000
2728.000000	100.300000
2729.000000	100.400000
2730.000000	101.400000
2731.000000	102.200000
2732.000000	102.400000
2733.000000	101.400000
2734.000000	100.700000
2735.000000	102.100000
2736.000000	102.000000
2737.000000	101.000000
2738.000000	101.700000
2739.000000	101.900000
2740.000000	102.100000
2741.000000	100.800000
2742.000000	100.900000
2743.000000	102.600000
2744.000000	102.000000
2745.000000	100.700000
2746.000000	101.600000
2747.000000	101.300000
2748.000000	100.700000
2749.000000	100.900000
2750.000000	100.700000
2751.000000	102.200000
2752.000000	102.300000
2753.000000	101.900000
2754.000000	103.100000
2755.000000	103.000000
2756.000000	103.400000
2757.000000	104.800000
2758.000000	105.900000
2759.000000	106.000000
2760.000000	105.500000
2761.000000	103.900000
2762.000000	103.300000
2763.000000	104.300000
2764.000000	104.200000
2765.000000	104.400000
2766.000000	104.100000
2767.000000	103.200000
2768.000000	102.500000
2769.000000	103.000000
2770.000000	103.400000
2771.000000	104.000000
2772.000000	104.900000
2773.000000	103.500000
2774.000000	103.000000
2775.000000	103.000000
2776.000000	102.500000
2777.000000	102.800000
2778.000000	102.800000
2779.000000	102.200000
2780.000000	101.500000
2781.000000	101.100000
2782.000000	100.100000
2783.000000	99.800000
2784.000000	99.900000
2785.000000	100.000000
2786.000000	99.600000
2787.000000	99.200000
2788.000000	98.500000
2789.000000	98.600000
2790.000000	98.800000
2791.000000	98.200000
2792.000000	97.800000
2793.000000	98.600000
2794.000000	98.500000
2795.000000	99.300000
2796.000000	100.100000
2797.000000	101.700000
2798.000000	102.200000
2799.000000	101.100000
2800.000000	100.700000
2801.000000	100.700000
2802.000000	101.200000
2803.000000	100.600000
2804.000000	100.700000
2805.000000	99.700000
2806.000000	99.700000
2807.000000	98.200000
2808.000000	98.100000
2809.000000	99.600000
2810.000000	100.200000
2811.000000	100.400000
2812.000000	100.400000
2813.000000	100.600000
2814.000000	100.700000
2815.000000	100.400000
2816.000000	100.300000
2817.000000	101.100000
2818.000000	101.400000
2819.000000	100.500000
2820.000000	100.300000
2821.000000	100.900000
2822.000000	100.500000
2823.000000	99.900000
2824.000000	100.000000
2825.000000	100.600000
2826.000000	100.400000
2827.000000	99.600000
2828.000000	99.400000
2829.000000	99.600000
2830.000000	100.300000
2831.000000	100.300000
2832.000000	100.000000
2833.000000	100.300000
2834.000000	100.600000
2835.000000	100.200000
2836.000000	99.800000
2837.000000	100.000000
2838.000000	100.000000
2839.000000	99.900000
2840.000000	99.600000
2841.000000	99.200000
2842.000000	100.200000
2843.000000	100.700000
2844.000000	101.100000
2845.000000	101.200000
2846.000000	101.600000
2847.000000	102.100000
2848.000000	102.400000
2849.000000	102.600000
2850.000000	102.500000
2851.000000	102.700000
2852.000000	103.000000
2853.000000	103.500000
2854.000000	103.100000
2855.000000	102.400000
2856.000000	101.600000
2857.000000	100.800000
2858.000000	100.700000
2859.000000	100.400000
2860.000000	99.800000
2861.000000	99.900000
2862.000000	99.500000
2863.000000	98.300000
2864.000000	98.400000
2865.000000	99.400000
2866.000000	100.100000
2867.000000	100.700000
2868.000000	100.500000
2869.000000	100.500000
2870.000000	101.300000
2871.000000	101.100000
2872.000000	100.700000
2873.000000	101.100000
2874.000000	100.900000
2875.000000	100.700000
2876.000000	100.800000
2877.000000	100.300000
2878.000000	100.700000
2879.000000	101.100000
2880.000000	100.700000
2881.000000	100.700000
2882.000000	101.000000
2883.000000	101.100000
2884.000000	101.500000
2885.000000	101.300000
2886.000000	101.200000
2887.000000	101.300000
2888.000000	100.800000
2889.000000	100.200000
2890.000000	100.200000
2891.000000	100.400000
2892.000000	100.900000
2893.000000	100.700000
2894.000000	100.500000
2895.000000	100.600000
2896.000000	100.700000
2897.000000	100.800000
2898.000000	101.100000
2899.000000	101.900000
2900.000000	102.100000
2901.000000	101.600000
2902.000000	101.300000
2903.000000	101.800000
2904.000000	101.700000
2905.000000	101.700000
2906.000000	101.400000
2907.000000	101.000000
2908.000000	101.100000
2909.000000	100.400000
2910.000000	100.600000
2911.000000	101.400000
2912.000000	101.500000
2913.000000	101.100000
2914.000000	100.900000
2915.000000	100.900000
2916.000000	100.600000
2917.000000	100.500000
2918.000000	100.200000
2919.000000	100.800000
2920.000000	100.400000
2921.000000	99.700000
2922.000000	99.300000
2923.000000	98.900000
2924.000000	98.500000
2925.000000	98.200000
2926.000000	98.900000
2927.000000	99.300000
2928.000000	99.400000
2929.000000	99.400000
2930.000000	99.100000
2931.000000	99.300000
2932.000000	98.700000
2933.000000	99.300000
2934.000000	100.100000
2935.000000	100.500000
2936.000000	100.200000
2937.000000	99.900000
2938.000000	99.800000
2939.000000	100.400000
2940.000000	101.200000
2941.000000	101.100000
2942.000000	101.900000
2943.000000	102.600000
2944.000000	102.400000
2945.000000	103.500000
2946.000000	104.000000
2947.000000	104.200000
2948.000000	104.200000
2949.000000	103.200000
2950.000000	103.100000
2951.000000	102.700000
2952.000000	103.100000
2953.000000	102.600000
2954.000000	102.400000
2955.000000	102.000000
2956.000000	100.800000
2957.000000	101.600000
2958.000000	101.500000
2959.000000	102.000000
2960.000000	101.800000
2961.000000	102.500000
2962.000000	102.500000
2963.000000	101.900000
2964.000000	101.800000
2965.000000	101.000000
2966.000000	102.400000
2967.000000	101.600000
2968.000000	101.100000
2969.000000	100.000000
2970.000000	99.500000
2971.000000	98.900000
2972.000000	98.000000
2973.000000	97.800000
2974.000000	98.100000
2975.000000	97.400000
2976.000000	96.800000
2977.000000	97.300000
2978.000000	97.900000
2979.000000	99.800000
2980.000000	100.500000
2981.000000	101.500000
2982.000000	102.200000
2983.000000	102.300000
2984.000000	102.400000
2985.000000	103.000000
2986.000000	102.800000
2987.000000	102.400000
2988.000000	103.300000
2989.000000	101.500000
2990.000000	101.700000
2991.000000	101.100000
2992.000000	101.300000
2993.000000	101.300000
2994.000000	101.400000
2995.000000	100.600000
2996.000000	101.000000
2997.000000	99.500000
2998.000000	99.000000
2999.000000	99.800000
3000.000000	100.200000
