PE UV       SUBTECH     SPECTRUM    ASCII       PEDS        4.00        
   -1
INBUCR0235-4.Sample.ASC
24/02/08
15:15:41.00
24/02/08
15:15:41.00
Vinicio Soto Monge
C. boucardi. Det A. Solís. COSTA RICA. Prov Limón. PI. La Amistad. Caribe. Camp 3: Fila Bugu, orilla campamento. 1500-1600m 25-26 FEB 2007 B. Gamboa M. Moraga Tp. Luz L_S_375729_551282 #90732. INB0004065423 
250,000000
1
Lambda 1050
1050L1511233
PerkinElmer UV WinLab 6.3.2.0749 / 2.02.05 Lambda 900 UV/VIS/NIR, Aug  7 2015 09:38:08

0
0
3350/servo 860,8/2
0
0
UV/VIS
1
1
1
DoubleDePol,CommonBeamDepol,RBeamAtt,SBeamAtt,60mm sphere, WB InGaAs Detector
0
0
0
0
Program
Program
3350/servo 860,8/2
3350/0,2 860,8/0,2
3350/0,2 860,8/0,2
0
15.00
 
 
 
0
 
860,8
319,2
860,8
Front
100
on
S:100 R:100
0
0
0
0
 
0
 
 
 
0
 
 
0
0
0
0
0
 
 
 
 
0
0


0
0
#HDR
-1
-1
#GR
nm
%R
1.0
0.0
2500,000000
-1,000000
2251
8
8,716100
0,646100
#DATA

250.000000	nan
251.000000	nan
252.000000	nan
253.000000	nan
254.000000	nan
255.000000	nan
256.000000	nan
257.000000	nan
258.000000	nan
259.000000	3.845578
260.000000	3.836797
261.000000	3.827336
262.000000	3.816084
263.000000	3.805213
264.000000	3.795772
265.000000	3.786135
266.000000	3.772701
267.000000	3.758929
268.000000	3.749104
269.000000	3.739731
270.000000	3.729551
271.000000	3.715900
272.000000	3.705215
273.000000	3.696592
274.000000	3.687486
275.000000	3.679027
276.000000	3.670741
277.000000	3.664846
278.000000	3.658185
279.000000	3.650001
280.000000	3.643876
281.000000	3.642029
282.000000	3.637202
283.000000	3.631676
284.000000	3.627333
285.000000	3.621985
286.000000	3.619815
287.000000	3.616009
288.000000	3.613490
289.000000	3.611450
290.000000	3.607826
291.000000	3.601210
292.000000	3.598087
293.000000	3.595317
294.000000	3.590883
295.000000	3.588355
296.000000	3.583269
297.000000	3.578381
298.000000	3.573998
299.000000	3.568379
300.000000	3.565707
301.000000	3.562071
302.000000	3.559712
303.000000	3.557057
304.000000	3.553645
305.000000	3.551153
306.000000	3.548931
307.000000	3.549650
308.000000	3.548132
309.000000	3.546553
310.000000	3.542276
311.000000	3.542372
312.000000	3.538741
313.000000	3.532453
314.000000	3.530327
315.000000	3.526259
316.000000	3.523837
317.000000	3.533543
318.000000	3.542011
319.000000	3.556387
320.000000	3.566345
321.000000	3.572232
322.000000	3.581067
323.000000	3.592124
324.000000	3.600159
325.000000	3.609561
326.000000	3.616453
327.000000	3.609942
328.000000	3.601681
329.000000	3.592689
330.000000	3.586830
331.000000	3.585682
332.000000	3.579622
333.000000	3.569222
334.000000	3.562664
335.000000	3.551874
336.000000	3.544145
337.000000	3.538150
338.000000	3.531407
339.000000	3.520297
340.000000	3.512255
341.000000	3.502140
342.000000	3.494637
343.000000	3.496391
344.000000	3.489507
345.000000	3.487889
346.000000	3.481214
347.000000	3.472112
348.000000	3.464026
349.000000	3.457558
350.000000	3.452691
351.000000	3.447519
352.000000	3.441564
353.000000	3.432659
354.000000	3.431431
355.000000	3.425539
356.000000	3.418915
357.000000	3.414405
358.000000	3.416203
359.000000	3.414947
360.000000	3.411870
361.000000	3.407727
362.000000	3.405445
363.000000	3.400850
364.000000	3.392963
365.000000	3.388847
366.000000	3.386474
367.000000	3.384958
368.000000	3.380452
369.000000	3.375603
370.000000	3.371738
371.000000	3.367979
372.000000	3.363466
373.000000	3.357527
374.000000	3.350571
375.000000	3.345481
376.000000	3.345321
377.000000	3.337581
378.000000	3.330651
379.000000	3.326622
380.000000	3.321329
381.000000	3.318886
382.000000	3.317440
383.000000	3.317569
384.000000	3.320877
385.000000	3.322415
386.000000	3.321664
387.000000	3.327003
388.000000	3.332935
389.000000	3.339052
390.000000	3.345700
391.000000	3.352362
392.000000	3.359238
393.000000	3.366239
394.000000	3.373987
395.000000	3.381843
396.000000	3.390135
397.000000	3.398810
398.000000	3.407611
399.000000	3.416708
400.000000	3.426182
401.000000	3.436526
402.000000	3.447713
403.000000	3.459846
404.000000	3.472378
405.000000	3.485743
406.000000	3.499959
407.000000	3.514733
408.000000	3.530363
409.000000	3.547032
410.000000	3.564567
411.000000	3.582638
412.000000	3.601306
413.000000	3.620714
414.000000	3.640980
415.000000	3.662247
416.000000	3.684490
417.000000	3.707230
418.000000	3.731079
419.000000	3.755536
420.000000	3.780196
421.000000	3.805184
422.000000	3.831187
423.000000	3.858167
424.000000	3.885528
425.000000	3.913179
426.000000	3.941578
427.000000	3.970931
428.000000	4.000950
429.000000	4.031433
430.000000	4.062825
431.000000	4.095010
432.000000	4.127593
433.000000	4.160446
434.000000	4.194041
435.000000	4.228541
436.000000	4.263608
437.000000	4.298659
438.000000	4.334051
439.000000	4.370109
440.000000	4.406606
441.000000	4.443709
442.000000	4.481012
443.000000	4.518469
444.000000	4.556374
445.000000	4.594290
446.000000	4.632033
447.000000	4.670520
448.000000	4.709246
449.000000	4.747673
450.000000	4.786035
451.000000	4.824301
452.000000	4.862717
453.000000	4.901578
454.000000	4.939925
455.000000	4.977940
456.000000	5.016528
457.000000	5.054878
458.000000	5.092670
459.000000	5.130361
460.000000	5.168046
461.000000	5.205348
462.000000	5.242526
463.000000	5.279433
464.000000	5.316156
465.000000	5.352742
466.000000	5.388372
467.000000	5.423463
468.000000	5.458379
469.000000	5.492865
470.000000	5.526565
471.000000	5.559889
472.000000	5.592777
473.000000	5.624756
474.000000	5.656140
475.000000	5.686654
476.000000	5.716352
477.000000	5.745094
478.000000	5.773227
479.000000	5.800523
480.000000	5.826856
481.000000	5.852120
482.000000	5.875496
483.000000	5.897380
484.000000	5.918071
485.000000	5.937417
486.000000	5.955745
487.000000	5.973216
488.000000	5.989045
489.000000	6.003582
490.000000	6.017416
491.000000	6.030107
492.000000	6.042198
493.000000	6.053832
494.000000	6.064847
495.000000	6.075479
496.000000	6.085787
497.000000	6.095330
498.000000	6.104945
499.000000	6.114685
500.000000	6.124184
501.000000	6.134492
502.000000	6.144927
503.000000	6.155679
504.000000	6.166786
505.000000	6.178442
506.000000	6.189998
507.000000	6.202442
508.000000	6.215950
509.000000	6.230078
510.000000	6.244764
511.000000	6.259314
512.000000	6.275091
513.000000	6.291718
514.000000	6.309305
515.000000	6.328044
516.000000	6.348360
517.000000	6.369822
518.000000	6.391385
519.000000	6.413914
520.000000	6.438013
521.000000	6.463746
522.000000	6.490162
523.000000	6.517916
524.000000	6.546993
525.000000	6.577139
526.000000	6.607974
527.000000	6.639741
528.000000	6.672607
529.000000	6.706715
530.000000	6.741779
531.000000	6.777138
532.000000	6.813609
533.000000	6.850898
534.000000	6.888491
535.000000	6.926550
536.000000	6.965616
537.000000	7.005442
538.000000	7.045677
539.000000	7.086210
540.000000	7.127038
541.000000	7.168624
542.000000	7.210630
543.000000	7.252847
544.000000	7.295268
545.000000	7.338368
546.000000	7.381666
547.000000	7.425336
548.000000	7.469859
549.000000	7.514935
550.000000	7.559677
551.000000	7.605329
552.000000	7.651524
553.000000	7.698335
554.000000	7.746019
555.000000	7.794084
556.000000	7.843060
557.000000	7.892580
558.000000	7.943440
559.000000	7.994251
560.000000	8.045359
561.000000	8.096763
562.000000	8.149100
563.000000	8.202107
564.000000	8.256528
565.000000	8.311739
566.000000	8.367656
567.000000	8.424500
568.000000	8.481528
569.000000	8.539860
570.000000	8.601117
571.000000	8.662843
572.000000	8.725683
573.000000	8.789427
574.000000	8.853561
575.000000	8.918738
576.000000	8.984873
577.000000	9.051728
578.000000	9.118774
579.000000	9.185871
580.000000	9.253059
581.000000	9.322083
582.000000	9.391083
583.000000	9.459990
584.000000	9.529350
585.000000	9.598692
586.000000	9.668002
587.000000	9.737121
588.000000	9.806834
589.000000	9.876636
590.000000	9.946826
591.000000	10.015320
592.000000	10.083152
593.000000	10.150382
594.000000	10.216377
595.000000	10.282306
596.000000	10.347176
597.000000	10.410862
598.000000	10.473952
599.000000	10.536327
600.000000	10.596845
601.000000	10.656424
602.000000	10.715224
603.000000	10.772991
604.000000	10.829791
605.000000	10.885464
606.000000	10.939369
607.000000	10.992777
608.000000	11.043383
609.000000	11.093263
610.000000	11.141552
611.000000	11.188536
612.000000	11.233895
613.000000	11.278089
614.000000	11.320592
615.000000	11.360880
616.000000	11.402895
617.000000	11.442335
618.000000	11.480652
619.000000	11.516969
620.000000	11.552649
621.000000	11.586808
622.000000	11.619187
623.000000	11.649933
624.000000	11.679292
625.000000	11.706957
626.000000	11.730272
627.000000	11.754016
628.000000	11.776591
629.000000	11.798281
630.000000	11.818557
631.000000	11.838030
632.000000	11.857519
633.000000	11.876859
634.000000	11.895624
635.000000	11.913767
636.000000	11.931887
637.000000	11.949073
638.000000	11.966220
639.000000	11.983010
640.000000	12.000003
641.000000	12.017101
642.000000	12.034575
643.000000	12.052130
644.000000	12.070074
645.000000	12.088648
646.000000	12.107936
647.000000	12.127998
648.000000	12.149370
649.000000	12.171815
650.000000	12.194637
651.000000	12.219517
652.000000	12.243737
653.000000	12.269062
654.000000	12.296483
655.000000	12.325958
656.000000	12.357419
657.000000	12.391097
658.000000	12.427188
659.000000	12.464782
660.000000	12.504187
661.000000	12.545523
662.000000	12.590910
663.000000	12.638292
664.000000	12.687443
665.000000	12.739168
666.000000	12.792686
667.000000	12.847797
668.000000	12.905278
669.000000	12.967152
670.000000	13.032892
671.000000	13.100637
672.000000	13.172256
673.000000	13.248228
674.000000	13.328809
675.000000	13.414139
676.000000	13.504931
677.000000	13.600989
678.000000	13.702429
679.000000	13.808912
680.000000	13.921873
681.000000	14.043366
682.000000	14.171997
683.000000	14.308292
684.000000	14.452890
685.000000	14.606336
686.000000	14.768533
687.000000	14.940199
688.000000	15.123228
689.000000	15.316858
690.000000	15.520753
691.000000	15.736262
692.000000	15.963253
693.000000	16.203041
694.000000	16.455222
695.000000	16.719602
696.000000	16.995629
697.000000	17.283635
698.000000	17.582035
699.000000	17.893760
700.000000	18.218086
701.000000	18.551243
702.000000	18.896158
703.000000	19.251242
704.000000	19.615442
705.000000	19.987623
706.000000	20.367771
707.000000	20.755585
708.000000	21.148778
709.000000	21.542646
710.000000	21.937984
711.000000	22.334450
712.000000	22.727840
713.000000	23.116076
714.000000	23.497817
715.000000	23.873125
716.000000	24.239072
717.000000	24.593517
718.000000	24.938292
719.000000	25.271556
720.000000	25.589910
721.000000	25.895004
722.000000	26.186828
723.000000	26.464665
724.000000	26.727307
725.000000	26.972908
726.000000	27.204166
727.000000	27.421202
728.000000	27.622033
729.000000	27.806319
730.000000	27.976944
731.000000	28.134406
732.000000	28.277760
733.000000	28.406365
734.000000	28.524770
735.000000	28.635676
736.000000	28.737591
737.000000	28.830905
738.000000	28.916448
739.000000	28.996338
740.000000	29.071853
741.000000	29.141334
742.000000	29.204924
743.000000	29.267498
744.000000	29.324853
745.000000	29.375466
746.000000	29.424213
747.000000	29.469011
748.000000	29.510684
749.000000	29.551135
750.000000	29.588026
751.000000	29.621380
752.000000	29.654499
753.000000	29.684497
754.000000	29.715809
755.000000	29.747400
756.000000	29.774029
757.000000	29.801274
758.000000	29.827735
759.000000	29.854435
760.000000	29.882988
761.000000	29.913535
762.000000	29.941687
763.000000	29.967593
764.000000	29.992162
765.000000	30.015826
766.000000	30.041393
767.000000	30.065872
768.000000	30.089545
769.000000	30.110975
770.000000	30.128999
771.000000	30.144400
772.000000	30.158450
773.000000	30.174868
774.000000	30.189590
775.000000	30.202368
776.000000	30.212505
777.000000	30.223191
778.000000	30.235890
779.000000	30.245287
780.000000	30.255638
781.000000	30.267408
782.000000	30.278328
783.000000	30.286344
784.000000	30.293480
785.000000	30.304579
786.000000	30.313571
787.000000	30.317304
788.000000	30.315072
789.000000	30.318448
790.000000	30.319406
791.000000	30.319449
792.000000	30.320789
793.000000	30.322648
794.000000	30.319426
795.000000	30.311782
796.000000	30.305686
797.000000	30.301976
798.000000	30.302831
799.000000	30.296577
800.000000	30.293406
801.000000	30.286291
802.000000	30.279355
803.000000	30.271713
804.000000	30.268790
805.000000	30.267594
806.000000	30.267450
807.000000	30.267971
808.000000	30.265343
809.000000	30.268800
810.000000	30.269247
811.000000	30.276671
812.000000	30.281681
813.000000	30.285124
814.000000	30.292165
815.000000	30.300695
816.000000	30.314116
817.000000	30.325881
818.000000	30.344283
819.000000	30.363812
820.000000	30.382222
821.000000	30.399304
822.000000	30.419666
823.000000	30.449303
824.000000	30.474782
825.000000	30.500059
826.000000	30.518240
827.000000	30.539583
828.000000	30.561443
829.000000	30.576463
830.000000	30.596365
831.000000	30.615937
832.000000	30.633396
833.000000	30.647262
834.000000	30.659518
835.000000	30.669161
836.000000	30.675187
837.000000	30.675734
838.000000	30.666222
839.000000	30.655383
840.000000	30.651219
841.000000	30.632874
842.000000	30.614554
843.000000	30.592419
844.000000	30.566113
845.000000	30.538050
846.000000	30.509873
847.000000	30.473183
848.000000	30.445167
849.000000	30.421687
850.000000	30.398106
851.000000	30.372294
852.000000	30.336328
853.000000	30.293934
854.000000	30.258679
855.000000	30.214674
856.000000	30.161661
857.000000	30.123396
858.000000	29.982497
859.000000	29.995436
860.000000	30.005714
861.000000	30.018478
862.000000	30.033713
863.000000	30.048178
864.000000	30.065796
865.000000	30.093842
866.000000	30.135396
867.000000	30.173581
868.000000	30.297817
869.000000	30.240562
870.000000	30.197750
871.000000	30.154968
872.000000	30.113790
873.000000	30.061898
874.000000	30.005305
875.000000	29.951248
876.000000	29.892280
877.000000	29.817478
878.000000	29.746823
879.000000	29.711655
880.000000	29.636960
881.000000	29.572497
882.000000	29.517340
883.000000	29.472292
884.000000	29.408372
885.000000	29.330597
886.000000	29.272968
887.000000	29.218618
888.000000	29.170335
889.000000	29.101740
890.000000	29.049535
891.000000	28.984282
892.000000	28.905583
893.000000	28.841080
894.000000	28.792257
895.000000	28.745725
896.000000	28.677602
897.000000	28.616245
898.000000	28.549625
899.000000	28.501630
900.000000	28.437462
901.000000	28.383075
902.000000	28.337847
903.000000	28.272255
904.000000	28.207212
905.000000	28.144315
906.000000	28.090958
907.000000	28.034402
908.000000	27.978547
909.000000	27.915345
910.000000	27.862550
911.000000	27.814775
912.000000	27.763095
913.000000	27.717715
914.000000	27.669092
915.000000	27.625970
916.000000	27.572623
917.000000	27.522000
918.000000	27.475090
919.000000	27.425767
920.000000	27.382635
921.000000	27.337595
922.000000	27.294802
923.000000	27.252977
924.000000	27.219707
925.000000	27.189235
926.000000	27.161455
927.000000	27.134180
928.000000	27.109495
929.000000	27.088032
930.000000	27.061405
931.000000	27.033015
932.000000	27.008357
933.000000	26.986695
934.000000	26.962187
935.000000	26.934680
936.000000	26.909910
937.000000	26.891920
938.000000	26.872678
939.000000	26.849480
940.000000	26.831698
941.000000	26.813300
942.000000	26.794773
943.000000	26.783485
944.000000	26.773868
945.000000	26.760728
946.000000	26.750117
947.000000	26.736355
948.000000	26.726385
949.000000	26.726382
950.000000	26.726620
951.000000	26.728695
952.000000	26.731750
953.000000	26.734723
954.000000	26.738588
955.000000	26.750437
956.000000	26.760433
957.000000	26.774883
958.000000	26.789955
959.000000	26.801800
960.000000	26.815565
961.000000	26.831738
962.000000	26.847732
963.000000	26.863585
964.000000	26.880470
965.000000	26.899505
966.000000	26.923928
967.000000	26.948830
968.000000	26.971640
969.000000	26.994903
970.000000	27.021230
971.000000	27.049500
972.000000	27.079748
973.000000	27.109298
974.000000	27.138128
975.000000	27.166502
976.000000	27.196470
977.000000	27.228750
978.000000	27.263310
979.000000	27.299327
980.000000	27.335748
981.000000	27.373750
982.000000	27.413338
983.000000	27.454040
984.000000	27.497512
985.000000	27.539265
986.000000	27.580125
987.000000	27.621440
988.000000	27.664903
989.000000	27.709707
990.000000	27.754620
991.000000	27.799242
992.000000	27.843597
993.000000	27.888137
994.000000	27.933182
995.000000	27.980185
996.000000	28.029390
997.000000	28.080092
998.000000	28.130145
999.000000	28.178558
1000.000000	28.226682
1001.000000	28.277527
1002.000000	28.329003
1003.000000	28.381745
1004.000000	28.434688
1005.000000	28.488132
1006.000000	28.540315
1007.000000	28.592788
1008.000000	28.646348
1009.000000	28.701602
1010.000000	28.758373
1011.000000	28.812962
1012.000000	28.867620
1013.000000	28.923190
1014.000000	28.979422
1015.000000	29.037665
1016.000000	29.096835
1017.000000	29.154160
1018.000000	29.211450
1019.000000	29.269838
1020.000000	29.328245
1021.000000	29.388915
1022.000000	29.450660
1023.000000	29.512540
1024.000000	29.574615
1025.000000	29.635537
1026.000000	29.697360
1027.000000	29.760585
1028.000000	29.824553
1029.000000	29.887552
1030.000000	29.950610
1031.000000	30.012630
1032.000000	30.074725
1033.000000	30.137657
1034.000000	30.200300
1035.000000	30.262650
1036.000000	30.325423
1037.000000	30.388290
1038.000000	30.450030
1039.000000	30.511345
1040.000000	30.573152
1041.000000	30.635515
1042.000000	30.698052
1043.000000	30.759297
1044.000000	30.820580
1045.000000	30.882785
1046.000000	30.943863
1047.000000	31.004645
1048.000000	31.066347
1049.000000	31.128980
1050.000000	31.190893
1051.000000	31.252337
1052.000000	31.315078
1053.000000	31.377792
1054.000000	31.440228
1055.000000	31.501505
1056.000000	31.563145
1057.000000	31.624643
1058.000000	31.685955
1059.000000	31.747042
1060.000000	31.806902
1061.000000	31.867705
1062.000000	31.926882
1063.000000	31.987687
1064.000000	32.048895
1065.000000	32.110928
1066.000000	32.172800
1067.000000	32.234020
1068.000000	32.295813
1069.000000	32.357745
1070.000000	32.422213
1071.000000	32.484975
1072.000000	32.547803
1073.000000	32.610410
1074.000000	32.672582
1075.000000	32.734565
1076.000000	32.795327
1077.000000	32.856572
1078.000000	32.917037
1079.000000	32.976937
1080.000000	33.034440
1081.000000	33.092290
1082.000000	33.150777
1083.000000	33.207342
1084.000000	33.263778
1085.000000	33.319767
1086.000000	33.377080
1087.000000	33.433943
1088.000000	33.490325
1089.000000	33.547413
1090.000000	33.604833
1091.000000	33.662058
1092.000000	33.717185
1093.000000	33.773428
1094.000000	33.829808
1095.000000	33.884318
1096.000000	33.938493
1097.000000	33.991703
1098.000000	34.044780
1099.000000	34.097575
1100.000000	34.150500
1101.000000	34.202427
1102.000000	34.254680
1103.000000	34.306607
1104.000000	34.357768
1105.000000	34.410345
1106.000000	34.462600
1107.000000	34.514595
1108.000000	34.565418
1109.000000	34.614793
1110.000000	34.664457
1111.000000	34.713475
1112.000000	34.762720
1113.000000	34.809470
1114.000000	34.857388
1115.000000	34.903672
1116.000000	34.949000
1117.000000	34.993073
1118.000000	35.037985
1119.000000	35.081648
1120.000000	35.120090
1121.000000	35.161175
1122.000000	35.201115
1123.000000	35.240812
1124.000000	35.275447
1125.000000	35.309535
1126.000000	35.341715
1127.000000	35.372712
1128.000000	35.401400
1129.000000	35.428148
1130.000000	35.454395
1131.000000	35.470535
1132.000000	35.484205
1133.000000	35.496640
1134.000000	35.511647
1135.000000	35.525662
1136.000000	35.534475
1137.000000	35.540893
1138.000000	35.544022
1139.000000	35.545272
1140.000000	35.546657
1141.000000	35.553308
1142.000000	35.558028
1143.000000	35.562472
1144.000000	35.564628
1145.000000	35.566185
1146.000000	35.572128
1147.000000	35.579005
1148.000000	35.587310
1149.000000	35.594655
1150.000000	35.601640
1151.000000	35.608550
1152.000000	35.615568
1153.000000	35.620427
1154.000000	35.621685
1155.000000	35.620308
1156.000000	35.614623
1157.000000	35.606652
1158.000000	35.594470
1159.000000	35.580227
1160.000000	35.564290
1161.000000	35.542202
1162.000000	35.518440
1163.000000	35.493608
1164.000000	35.468117
1165.000000	35.441032
1166.000000	35.413920
1167.000000	35.386805
1168.000000	35.360322
1169.000000	35.335490
1170.000000	35.311407
1171.000000	35.289372
1172.000000	35.269667
1173.000000	35.252007
1174.000000	35.235600
1175.000000	35.221598
1176.000000	35.210985
1177.000000	35.202220
1178.000000	35.195510
1179.000000	35.190897
1180.000000	35.186635
1181.000000	35.188475
1182.000000	35.190433
1183.000000	35.194215
1184.000000	35.200252
1185.000000	35.210387
1186.000000	35.221690
1187.000000	35.237533
1188.000000	35.256985
1189.000000	35.280023
1190.000000	35.309110
1191.000000	35.339580
1192.000000	35.374560
1193.000000	35.411992
1194.000000	35.454510
1195.000000	35.498350
1196.000000	35.545433
1197.000000	35.592002
1198.000000	35.640853
1199.000000	35.690390
1200.000000	35.738467
1201.000000	35.786192
1202.000000	35.832545
1203.000000	35.879945
1204.000000	35.926317
1205.000000	35.972870
1206.000000	36.018195
1207.000000	36.064287
1208.000000	36.109788
1209.000000	36.153945
1210.000000	36.199360
1211.000000	36.244308
1212.000000	36.288690
1213.000000	36.332845
1214.000000	36.376915
1215.000000	36.420192
1216.000000	36.463082
1217.000000	36.506077
1218.000000	36.548472
1219.000000	36.593027
1220.000000	36.636087
1221.000000	36.678142
1222.000000	36.721540
1223.000000	36.763838
1224.000000	36.805137
1225.000000	36.846180
1226.000000	36.887380
1227.000000	36.927000
1228.000000	36.965652
1229.000000	37.002337
1230.000000	37.039365
1231.000000	37.077308
1232.000000	37.114395
1233.000000	37.150275
1234.000000	37.185525
1235.000000	37.219400
1236.000000	37.251880
1237.000000	37.284373
1238.000000	37.316965
1239.000000	37.349708
1240.000000	37.382128
1241.000000	37.414385
1242.000000	37.446222
1243.000000	37.478552
1244.000000	37.511453
1245.000000	37.545570
1246.000000	37.581075
1247.000000	37.616912
1248.000000	37.652725
1249.000000	37.688503
1250.000000	37.724915
1251.000000	37.761130
1252.000000	37.797805
1253.000000	37.834463
1254.000000	37.870910
1255.000000	37.906648
1256.000000	37.940478
1257.000000	37.973260
1258.000000	38.005762
1259.000000	38.037427
1260.000000	38.067635
1261.000000	38.096933
1262.000000	38.125580
1263.000000	38.153987
1264.000000	38.181947
1265.000000	38.209020
1266.000000	38.235292
1267.000000	38.262055
1268.000000	38.288683
1269.000000	38.314410
1270.000000	38.339085
1271.000000	38.362683
1272.000000	38.384462
1273.000000	38.405475
1274.000000	38.426462
1275.000000	38.448050
1276.000000	38.470322
1277.000000	38.492058
1278.000000	38.513270
1279.000000	38.534670
1280.000000	38.556888
1281.000000	38.580270
1282.000000	38.605013
1283.000000	38.629550
1284.000000	38.653607
1285.000000	38.677993
1286.000000	38.703910
1287.000000	38.729740
1288.000000	38.755422
1289.000000	38.781280
1290.000000	38.807302
1291.000000	38.833003
1292.000000	38.857990
1293.000000	38.883292
1294.000000	38.909075
1295.000000	38.933450
1296.000000	38.956260
1297.000000	38.978408
1298.000000	38.999345
1299.000000	39.020002
1300.000000	39.040002
1301.000000	39.058752
1302.000000	39.077245
1303.000000	39.093695
1304.000000	39.107755
1305.000000	39.121172
1306.000000	39.134130
1307.000000	39.146232
1308.000000	39.157470
1309.000000	39.166522
1310.000000	39.173387
1311.000000	39.178452
1312.000000	39.181512
1313.000000	39.183748
1314.000000	39.184398
1315.000000	39.183017
1316.000000	39.179848
1317.000000	39.174222
1318.000000	39.166950
1319.000000	39.158755
1320.000000	39.149700
1321.000000	39.139252
1322.000000	39.127375
1323.000000	39.113910
1324.000000	39.098315
1325.000000	39.080417
1326.000000	39.059758
1327.000000	39.036835
1328.000000	39.011612
1329.000000	38.983595
1330.000000	38.952215
1331.000000	38.918492
1332.000000	38.882098
1333.000000	38.842420
1334.000000	38.800150
1335.000000	38.755133
1336.000000	38.707755
1337.000000	38.658480
1338.000000	38.606962
1339.000000	38.553490
1340.000000	38.497708
1341.000000	38.439432
1342.000000	38.377918
1343.000000	38.313930
1344.000000	38.247635
1345.000000	38.178880
1346.000000	38.107795
1347.000000	38.035220
1348.000000	37.958445
1349.000000	37.876527
1350.000000	37.791967
1351.000000	37.704723
1352.000000	37.616357
1353.000000	37.529772
1354.000000	37.446757
1355.000000	37.365108
1356.000000	37.283857
1357.000000	37.200825
1358.000000	37.120310
1359.000000	37.042288
1360.000000	36.974105
1361.000000	36.916007
1362.000000	36.856223
1363.000000	36.791688
1364.000000	36.727510
1365.000000	36.659500
1366.000000	36.588172
1367.000000	36.520175
1368.000000	36.448210
1369.000000	36.372828
1370.000000	36.284065
1371.000000	36.179010
1372.000000	36.064432
1373.000000	35.938178
1374.000000	35.793260
1375.000000	35.636222
1376.000000	35.465740
1377.000000	35.275953
1378.000000	35.074275
1379.000000	34.862797
1380.000000	34.651325
1381.000000	34.448188
1382.000000	34.254468
1383.000000	34.072370
1384.000000	33.899062
1385.000000	33.736258
1386.000000	33.587347
1387.000000	33.460948
1388.000000	33.348878
1389.000000	33.243520
1390.000000	33.141930
1391.000000	33.041807
1392.000000	32.944083
1393.000000	32.846760
1394.000000	32.759035
1395.000000	32.680780
1396.000000	32.598312
1397.000000	32.497518
1398.000000	32.391263
1399.000000	32.295417
1400.000000	32.201528
1401.000000	32.093280
1402.000000	31.969450
1403.000000	31.837792
1404.000000	31.696132
1405.000000	31.538760
1406.000000	31.376587
1407.000000	31.216273
1408.000000	31.052775
1409.000000	30.873970
1410.000000	30.679812
1411.000000	30.484280
1412.000000	30.294618
1413.000000	30.108587
1414.000000	29.921505
1415.000000	29.731682
1416.000000	29.539498
1417.000000	29.353722
1418.000000	29.172397
1419.000000	28.996700
1420.000000	28.825952
1421.000000	28.659213
1422.000000	28.499385
1423.000000	28.342175
1424.000000	28.186030
1425.000000	28.037625
1426.000000	27.900535
1427.000000	27.764418
1428.000000	27.631518
1429.000000	27.499905
1430.000000	27.375055
1431.000000	27.260413
1432.000000	27.148793
1433.000000	27.038153
1434.000000	26.933788
1435.000000	26.834362
1436.000000	26.737482
1437.000000	26.645272
1438.000000	26.555950
1439.000000	26.470490
1440.000000	26.389698
1441.000000	26.310270
1442.000000	26.231763
1443.000000	26.156562
1444.000000	26.085033
1445.000000	26.017620
1446.000000	25.951080
1447.000000	25.881650
1448.000000	25.812898
1449.000000	25.750038
1450.000000	25.687883
1451.000000	25.626145
1452.000000	25.564708
1453.000000	25.504480
1454.000000	25.444173
1455.000000	25.382690
1456.000000	25.322175
1457.000000	25.264708
1458.000000	25.206448
1459.000000	25.146452
1460.000000	25.086987
1461.000000	25.026897
1462.000000	24.967995
1463.000000	24.910825
1464.000000	24.851920
1465.000000	24.794132
1466.000000	24.737088
1467.000000	24.680557
1468.000000	24.625718
1469.000000	24.573097
1470.000000	24.521110
1471.000000	24.470672
1472.000000	24.420728
1473.000000	24.370202
1474.000000	24.320972
1475.000000	24.272540
1476.000000	24.227440
1477.000000	24.185280
1478.000000	24.145873
1479.000000	24.107130
1480.000000	24.070852
1481.000000	24.037150
1482.000000	24.007135
1483.000000	23.980757
1484.000000	23.957653
1485.000000	23.937548
1486.000000	23.918565
1487.000000	23.902877
1488.000000	23.889615
1489.000000	23.878865
1490.000000	23.868925
1491.000000	23.861147
1492.000000	23.854952
1493.000000	23.850520
1494.000000	23.848915
1495.000000	23.849275
1496.000000	23.853012
1497.000000	23.859010
1498.000000	23.867273
1499.000000	23.877910
1500.000000	23.892088
1501.000000	23.909313
1502.000000	23.931135
1503.000000	23.957518
1504.000000	23.986723
1505.000000	24.019830
1506.000000	24.055308
1507.000000	24.093322
1508.000000	24.135157
1509.000000	24.179298
1510.000000	24.226672
1511.000000	24.276020
1512.000000	24.326632
1513.000000	24.377543
1514.000000	24.429885
1515.000000	24.482695
1516.000000	24.534615
1517.000000	24.586930
1518.000000	24.639290
1519.000000	24.691987
1520.000000	24.743580
1521.000000	24.795183
1522.000000	24.845588
1523.000000	24.896035
1524.000000	24.946288
1525.000000	24.995088
1526.000000	25.044222
1527.000000	25.092675
1528.000000	25.139025
1529.000000	25.184262
1530.000000	25.228353
1531.000000	25.271735
1532.000000	25.314647
1533.000000	25.355315
1534.000000	25.394038
1535.000000	25.432337
1536.000000	25.469705
1537.000000	25.505052
1538.000000	25.539805
1539.000000	25.573510
1540.000000	25.605625
1541.000000	25.636547
1542.000000	25.666870
1543.000000	25.696668
1544.000000	25.727330
1545.000000	25.759523
1546.000000	25.792127
1547.000000	25.826085
1548.000000	25.861962
1549.000000	25.898890
1550.000000	25.938780
1551.000000	25.980037
1552.000000	26.020980
1553.000000	26.063142
1554.000000	26.104413
1555.000000	26.143442
1556.000000	26.181482
1557.000000	26.217820
1558.000000	26.250567
1559.000000	26.280930
1560.000000	26.307775
1561.000000	26.330400
1562.000000	26.349445
1563.000000	26.365790
1564.000000	26.378118
1565.000000	26.385620
1566.000000	26.389398
1567.000000	26.390802
1568.000000	26.390358
1569.000000	26.387027
1570.000000	26.380795
1571.000000	26.373303
1572.000000	26.366210
1573.000000	26.359230
1574.000000	26.353928
1575.000000	26.349975
1576.000000	26.346150
1577.000000	26.343870
1578.000000	26.344920
1579.000000	26.348872
1580.000000	26.356430
1581.000000	26.366958
1582.000000	26.378998
1583.000000	26.393072
1584.000000	26.409573
1585.000000	26.429583
1586.000000	26.453638
1587.000000	26.480280
1588.000000	26.507032
1589.000000	26.535700
1590.000000	26.565535
1591.000000	26.597200
1592.000000	26.631265
1593.000000	26.666172
1594.000000	26.701707
1595.000000	26.738717
1596.000000	26.777033
1597.000000	26.816717
1598.000000	26.857672
1599.000000	26.900098
1600.000000	26.943220
1601.000000	26.987217
1602.000000	27.032743
1603.000000	27.079560
1604.000000	27.127900
1605.000000	27.177345
1606.000000	27.226110
1607.000000	27.274273
1608.000000	27.323175
1609.000000	27.371333
1610.000000	27.419282
1611.000000	27.465915
1612.000000	27.510390
1613.000000	27.553995
1614.000000	27.595975
1615.000000	27.635355
1616.000000	27.673402
1617.000000	27.709830
1618.000000	27.745443
1619.000000	27.779475
1620.000000	27.813370
1621.000000	27.846708
1622.000000	27.878800
1623.000000	27.909275
1624.000000	27.939332
1625.000000	27.969940
1626.000000	28.000207
1627.000000	28.029500
1628.000000	28.057758
1629.000000	28.085852
1630.000000	28.112195
1631.000000	28.137635
1632.000000	28.164212
1633.000000	28.190082
1634.000000	28.214370
1635.000000	28.236303
1636.000000	28.255685
1637.000000	28.274550
1638.000000	28.291895
1639.000000	28.307735
1640.000000	28.322158
1641.000000	28.335970
1642.000000	28.345623
1643.000000	28.354215
1644.000000	28.362352
1645.000000	28.369250
1646.000000	28.375617
1647.000000	28.380253
1648.000000	28.382997
1649.000000	28.384100
1650.000000	28.383543
1651.000000	28.380002
1652.000000	28.373450
1653.000000	28.362073
1654.000000	28.347188
1655.000000	28.327123
1656.000000	28.302700
1657.000000	28.274487
1658.000000	28.239358
1659.000000	28.198807
1660.000000	28.152358
1661.000000	28.099590
1662.000000	28.042372
1663.000000	27.978630
1664.000000	27.907857
1665.000000	27.832848
1666.000000	27.752902
1667.000000	27.666490
1668.000000	27.574417
1669.000000	27.475850
1670.000000	27.371677
1671.000000	27.264958
1672.000000	27.155403
1673.000000	27.045730
1674.000000	26.935068
1675.000000	26.821028
1676.000000	26.705065
1677.000000	26.587248
1678.000000	26.469043
1679.000000	26.350777
1680.000000	26.232290
1681.000000	26.109783
1682.000000	25.986275
1683.000000	25.862520
1684.000000	25.737037
1685.000000	25.615443
1686.000000	25.499265
1687.000000	25.391485
1688.000000	25.296455
1689.000000	25.214033
1690.000000	25.145247
1691.000000	25.094050
1692.000000	25.058530
1693.000000	25.038448
1694.000000	25.031147
1695.000000	25.035295
1696.000000	25.047253
1697.000000	25.063503
1698.000000	25.079665
1699.000000	25.094125
1700.000000	25.105623
1701.000000	25.110245
1702.000000	25.111258
1703.000000	25.104553
1704.000000	25.091772
1705.000000	25.070875
1706.000000	25.042772
1707.000000	25.008295
1708.000000	24.964868
1709.000000	24.914915
1710.000000	24.858332
1711.000000	24.794215
1712.000000	24.718700
1713.000000	24.634027
1714.000000	24.542495
1715.000000	24.444115
1716.000000	24.338242
1717.000000	24.225108
1718.000000	24.108552
1719.000000	23.989763
1720.000000	23.869622
1721.000000	23.753598
1722.000000	23.643763
1723.000000	23.543543
1724.000000	23.454680
1725.000000	23.379070
1726.000000	23.318145
1727.000000	23.273128
1728.000000	23.243333
1729.000000	23.227860
1730.000000	23.227027
1731.000000	23.238590
1732.000000	23.261647
1733.000000	23.291095
1734.000000	23.327510
1735.000000	23.367988
1736.000000	23.413815
1737.000000	23.462870
1738.000000	23.516682
1739.000000	23.572120
1740.000000	23.629545
1741.000000	23.689163
1742.000000	23.749043
1743.000000	23.811338
1744.000000	23.873385
1745.000000	23.936017
1746.000000	23.994248
1747.000000	24.051082
1748.000000	24.104482
1749.000000	24.155397
1750.000000	24.201512
1751.000000	24.240842
1752.000000	24.275610
1753.000000	24.304962
1754.000000	24.328608
1755.000000	24.348605
1756.000000	24.367430
1757.000000	24.381837
1758.000000	24.391652
1759.000000	24.399280
1760.000000	24.406322
1761.000000	24.415363
1762.000000	24.423672
1763.000000	24.431605
1764.000000	24.442295
1765.000000	24.453810
1766.000000	24.467495
1767.000000	24.483795
1768.000000	24.504945
1769.000000	24.529307
1770.000000	24.555523
1771.000000	24.581580
1772.000000	24.609768
1773.000000	24.641192
1774.000000	24.673868
1775.000000	24.708183
1776.000000	24.742480
1777.000000	24.776075
1778.000000	24.809578
1779.000000	24.841743
1780.000000	24.871880
1781.000000	24.901478
1782.000000	24.928408
1783.000000	24.953527
1784.000000	24.976218
1785.000000	24.995632
1786.000000	25.012915
1787.000000	25.029097
1788.000000	25.042030
1789.000000	25.052745
1790.000000	25.064103
1791.000000	25.074825
1792.000000	25.087280
1793.000000	25.099960
1794.000000	25.112687
1795.000000	25.127923
1796.000000	25.142858
1797.000000	25.156363
1798.000000	25.170103
1799.000000	25.185145
1800.000000	25.202610
1801.000000	25.222372
1802.000000	25.240903
1803.000000	25.256280
1804.000000	25.271628
1805.000000	25.287838
1806.000000	25.306857
1807.000000	25.327265
1808.000000	25.346818
1809.000000	25.365130
1810.000000	25.382560
1811.000000	25.399560
1812.000000	25.416190
1813.000000	25.434148
1814.000000	25.452100
1815.000000	25.467420
1816.000000	25.478780
1817.000000	25.486113
1818.000000	25.492152
1819.000000	25.503090
1820.000000	25.518567
1821.000000	25.534940
1822.000000	25.546543
1823.000000	25.551570
1824.000000	25.551700
1825.000000	25.551233
1826.000000	25.555635
1827.000000	25.567587
1828.000000	25.584763
1829.000000	25.599462
1830.000000	25.609510
1831.000000	25.615267
1832.000000	25.623467
1833.000000	25.635015
1834.000000	25.651083
1835.000000	25.673043
1836.000000	25.697410
1837.000000	25.721135
1838.000000	25.742380
1839.000000	25.763520
1840.000000	25.787930
1841.000000	25.819133
1842.000000	25.851275
1843.000000	25.877975
1844.000000	25.894860
1845.000000	25.903833
1846.000000	25.913473
1847.000000	25.931647
1848.000000	25.955673
1849.000000	25.971657
1850.000000	25.972327
1851.000000	25.959725
1852.000000	25.948140
1853.000000	25.949002
1854.000000	25.960055
1855.000000	25.970375
1856.000000	25.966237
1857.000000	25.948133
1858.000000	25.926060
1859.000000	25.907943
1860.000000	25.895042
1861.000000	25.884120
1862.000000	25.865317
1863.000000	25.830350
1864.000000	25.784692
1865.000000	25.732252
1866.000000	25.677820
1867.000000	25.614258
1868.000000	25.537782
1869.000000	25.455465
1870.000000	25.372162
1871.000000	25.283200
1872.000000	25.190267
1873.000000	25.096225
1874.000000	24.996173
1875.000000	24.887482
1876.000000	24.768200
1877.000000	24.640297
1878.000000	24.499440
1879.000000	24.342870
1880.000000	24.165568
1881.000000	23.973152
1882.000000	23.770463
1883.000000	23.557342
1884.000000	23.333700
1885.000000	23.100448
1886.000000	22.857087
1887.000000	22.601562
1888.000000	22.337203
1889.000000	22.066235
1890.000000	21.791085
1891.000000	21.507590
1892.000000	21.211137
1893.000000	20.905945
1894.000000	20.588180
1895.000000	20.257858
1896.000000	19.923003
1897.000000	19.584048
1898.000000	19.243928
1899.000000	18.901532
1900.000000	18.554505
1901.000000	18.204057
1902.000000	17.855620
1903.000000	17.509538
1904.000000	17.174960
1905.000000	16.852145
1906.000000	16.536153
1907.000000	16.227418
1908.000000	15.929682
1909.000000	15.637020
1910.000000	15.354782
1911.000000	15.087043
1912.000000	14.836682
1913.000000	14.600297
1914.000000	14.373515
1915.000000	14.156467
1916.000000	13.951802
1917.000000	13.760367
1918.000000	13.578932
1919.000000	13.415248
1920.000000	13.264857
1921.000000	13.128167
1922.000000	12.999737
1923.000000	12.878280
1924.000000	12.762903
1925.000000	12.658822
1926.000000	12.565665
1927.000000	12.484483
1928.000000	12.410343
1929.000000	12.341250
1930.000000	12.277930
1931.000000	12.224833
1932.000000	12.179025
1933.000000	12.139095
1934.000000	12.109395
1935.000000	12.088133
1936.000000	12.070137
1937.000000	12.057882
1938.000000	12.052492
1939.000000	12.052798
1940.000000	12.062077
1941.000000	12.073467
1942.000000	12.088410
1943.000000	12.111235
1944.000000	12.136305
1945.000000	12.165505
1946.000000	12.201593
1947.000000	12.238378
1948.000000	12.277088
1949.000000	12.321317
1950.000000	12.366965
1951.000000	12.414065
1952.000000	12.462397
1953.000000	12.514630
1954.000000	12.571550
1955.000000	12.628530
1956.000000	12.682702
1957.000000	12.739635
1958.000000	12.801110
1959.000000	12.858775
1960.000000	12.918235
1961.000000	12.981268
1962.000000	13.045295
1963.000000	13.107012
1964.000000	13.167953
1965.000000	13.228645
1966.000000	13.290203
1967.000000	13.352322
1968.000000	13.410765
1969.000000	13.471985
1970.000000	13.530520
1971.000000	13.589620
1972.000000	13.649970
1973.000000	13.707522
1974.000000	13.763540
1975.000000	13.820995
1976.000000	13.878830
1977.000000	13.937572
1978.000000	13.999440
1979.000000	14.062873
1980.000000	14.128100
1981.000000	14.188310
1982.000000	14.248780
1983.000000	14.312680
1984.000000	14.378542
1985.000000	14.444382
1986.000000	14.511233
1987.000000	14.576553
1988.000000	14.639007
1989.000000	14.698855
1990.000000	14.759042
1991.000000	14.821190
1992.000000	14.879448
1993.000000	14.935182
1994.000000	14.990993
1995.000000	15.044205
1996.000000	15.095400
1997.000000	15.146060
1998.000000	15.195823
1999.000000	15.243520
2000.000000	15.284533
2001.000000	15.324725
2002.000000	15.366848
2003.000000	15.407645
2004.000000	15.445057
2005.000000	15.481595
2006.000000	15.514130
2007.000000	15.541627
2008.000000	15.567032
2009.000000	15.589042
2010.000000	15.610518
2011.000000	15.626278
2012.000000	15.634257
2013.000000	15.637652
2014.000000	15.636480
2015.000000	15.630148
2016.000000	15.620687
2017.000000	15.604857
2018.000000	15.583037
2019.000000	15.560545
2020.000000	15.532495
2021.000000	15.502680
2022.000000	15.470245
2023.000000	15.434675
2024.000000	15.396533
2025.000000	15.350975
2026.000000	15.302787
2027.000000	15.255407
2028.000000	15.205535
2029.000000	15.149408
2030.000000	15.089350
2031.000000	15.025132
2032.000000	14.955840
2033.000000	14.881790
2034.000000	14.804085
2035.000000	14.722148
2036.000000	14.638143
2037.000000	14.555898
2038.000000	14.469290
2039.000000	14.376167
2040.000000	14.281145
2041.000000	14.181793
2042.000000	14.082592
2043.000000	13.984095
2044.000000	13.883945
2045.000000	13.788937
2046.000000	13.693912
2047.000000	13.593673
2048.000000	13.494840
2049.000000	13.401245
2050.000000	13.317760
2051.000000	13.242145
2052.000000	13.173038
2053.000000	13.113538
2054.000000	13.063185
2055.000000	13.020573
2056.000000	12.988888
2057.000000	12.969170
2058.000000	12.965472
2059.000000	12.973923
2060.000000	12.985775
2061.000000	13.004260
2062.000000	13.033080
2063.000000	13.070288
2064.000000	13.119207
2065.000000	13.173998
2066.000000	13.229532
2067.000000	13.289345
2068.000000	13.350013
2069.000000	13.411832
2070.000000	13.475112
2071.000000	13.540875
2072.000000	13.606973
2073.000000	13.670858
2074.000000	13.729645
2075.000000	13.785625
2076.000000	13.842308
2077.000000	13.897385
2078.000000	13.946592
2079.000000	13.992430
2080.000000	14.039548
2081.000000	14.082788
2082.000000	14.119602
2083.000000	14.147432
2084.000000	14.169477
2085.000000	14.190487
2086.000000	14.205243
2087.000000	14.215502
2088.000000	14.225998
2089.000000	14.233010
2090.000000	14.234780
2091.000000	14.231275
2092.000000	14.225840
2093.000000	14.221827
2094.000000	14.217690
2095.000000	14.212485
2096.000000	14.203977
2097.000000	14.192462
2098.000000	14.181223
2099.000000	14.172310
2100.000000	14.162847
2101.000000	14.155310
2102.000000	14.149445
2103.000000	14.144258
2104.000000	14.144028
2105.000000	14.141085
2106.000000	14.143785
2107.000000	14.144095
2108.000000	14.141207
2109.000000	14.144275
2110.000000	14.151288
2111.000000	14.159137
2112.000000	14.164507
2113.000000	14.167343
2114.000000	14.160390
2115.000000	14.152342
2116.000000	14.143548
2117.000000	14.148442
2118.000000	14.147268
2119.000000	14.140342
2120.000000	14.140700
2121.000000	14.137043
2122.000000	14.124077
2123.000000	14.111770
2124.000000	14.100870
2125.000000	14.093393
2126.000000	14.081405
2127.000000	14.056973
2128.000000	14.035985
2129.000000	14.014068
2130.000000	13.973040
2131.000000	13.929000
2132.000000	13.889603
2133.000000	13.854707
2134.000000	13.813295
2135.000000	13.771745
2136.000000	13.729513
2137.000000	13.680103
2138.000000	13.625303
2139.000000	13.567650
2140.000000	13.510403
2141.000000	13.461872
2142.000000	13.405342
2143.000000	13.338945
2144.000000	13.275785
2145.000000	13.202392
2146.000000	13.128458
2147.000000	13.058603
2148.000000	12.996328
2149.000000	12.936985
2150.000000	12.876160
2151.000000	12.808007
2152.000000	12.752942
2153.000000	12.688368
2154.000000	12.625700
2155.000000	12.567505
2156.000000	12.508650
2157.000000	12.447103
2158.000000	12.386048
2159.000000	12.319308
2160.000000	12.260798
2161.000000	12.200565
2162.000000	12.144282
2163.000000	12.098570
2164.000000	12.048072
2165.000000	12.008625
2166.000000	11.976057
2167.000000	11.942127
2168.000000	11.907518
2169.000000	11.876185
2170.000000	11.841680
2171.000000	11.809577
2172.000000	11.775293
2173.000000	11.741328
2174.000000	11.722290
2175.000000	11.691218
2176.000000	11.669855
2177.000000	11.650728
2178.000000	11.635050
2179.000000	11.618935
2180.000000	11.613320
2181.000000	11.601448
2182.000000	11.584810
2183.000000	11.573780
2184.000000	11.550862
2185.000000	11.527000
2186.000000	11.496807
2187.000000	11.472703
2188.000000	11.448488
2189.000000	11.414005
2190.000000	11.373527
2191.000000	11.345745
2192.000000	11.317483
2193.000000	11.279388
2194.000000	11.235240
2195.000000	11.196392
2196.000000	11.143443
2197.000000	11.096780
2198.000000	11.040060
2199.000000	10.996225
2200.000000	10.945692
2201.000000	10.892655
2202.000000	10.839855
2203.000000	10.790940
2204.000000	10.747890
2205.000000	10.705405
2206.000000	10.686248
2207.000000	10.649112
2208.000000	10.619848
2209.000000	10.594715
2210.000000	10.577435
2211.000000	10.574265
2212.000000	10.578817
2213.000000	10.588447
2214.000000	10.610538
2215.000000	10.635082
2216.000000	10.662672
2217.000000	10.715843
2218.000000	10.759985
2219.000000	10.811253
2220.000000	10.862853
2221.000000	10.915158
2222.000000	10.972547
2223.000000	11.037215
2224.000000	11.097373
2225.000000	11.168190
2226.000000	11.218803
2227.000000	11.259140
2228.000000	11.313173
2229.000000	11.359088
2230.000000	11.408728
2231.000000	11.452860
2232.000000	11.482115
2233.000000	11.507893
2234.000000	11.529327
2235.000000	11.538875
2236.000000	11.551500
2237.000000	11.561093
2238.000000	11.566700
2239.000000	11.564517
2240.000000	11.548850
2241.000000	11.517875
2242.000000	11.489675
2243.000000	11.461617
2244.000000	11.434403
2245.000000	11.410610
2246.000000	11.368525
2247.000000	11.317918
2248.000000	11.263333
2249.000000	11.217593
2250.000000	11.169050
2251.000000	11.117068
2252.000000	11.056257
2253.000000	10.991500
2254.000000	10.918815
2255.000000	10.839920
2256.000000	10.777400
2257.000000	10.715667
2258.000000	10.653787
2259.000000	10.578428
2260.000000	10.498617
2261.000000	10.426137
2262.000000	10.373150
2263.000000	10.319138
2264.000000	10.271492
2265.000000	10.226180
2266.000000	10.175640
2267.000000	10.133938
2268.000000	10.098855
2269.000000	10.065463
2270.000000	10.048808
2271.000000	10.049640
2272.000000	10.045630
2273.000000	10.040465
2274.000000	10.035623
2275.000000	10.038483
2276.000000	10.049758
2277.000000	10.065205
2278.000000	10.078893
2279.000000	10.089455
2280.000000	10.100912
2281.000000	10.108035
2282.000000	10.106948
2283.000000	10.097777
2284.000000	10.092095
2285.000000	10.084663
2286.000000	10.085500
2287.000000	10.076348
2288.000000	10.065608
2289.000000	10.069740
2290.000000	10.076198
2291.000000	10.072985
2292.000000	10.072463
2293.000000	10.084768
2294.000000	10.092668
2295.000000	10.099675
2296.000000	10.099728
2297.000000	10.110587
2298.000000	10.129157
2299.000000	10.145340
2300.000000	10.145015
2301.000000	10.143220
2302.000000	10.147420
2303.000000	10.162423
2304.000000	10.186598
2305.000000	10.208418
2306.000000	10.234492
2307.000000	10.248238
2308.000000	10.256328
2309.000000	10.274638
2310.000000	10.306208
2311.000000	10.334268
2312.000000	10.373965
2313.000000	10.414760
2314.000000	10.442543
2315.000000	10.464358
2316.000000	10.483125
2317.000000	10.506328
2318.000000	10.535588
2319.000000	10.559233
2320.000000	10.582400
2321.000000	10.611940
2322.000000	10.618013
2323.000000	10.614215
2324.000000	10.617845
2325.000000	10.632935
2326.000000	10.647342
2327.000000	10.667638
2328.000000	10.683370
2329.000000	10.680495
2330.000000	10.684770
2331.000000	10.697893
2332.000000	10.723838
2333.000000	10.756695
2334.000000	10.782908
2335.000000	10.789450
2336.000000	10.801362
2337.000000	10.816255
2338.000000	10.831245
2339.000000	10.859117
2340.000000	10.878497
2341.000000	10.882552
2342.000000	10.899517
2343.000000	10.915285
2344.000000	10.934077
2345.000000	10.966140
2346.000000	10.985437
2347.000000	11.004715
2348.000000	11.023280
2349.000000	11.042730
2350.000000	11.066200
2351.000000	11.100252
2352.000000	11.126485
2353.000000	11.134087
2354.000000	11.146992
2355.000000	11.164280
2356.000000	11.191992
2357.000000	11.219135
2358.000000	11.240760
2359.000000	11.260915
2360.000000	11.272698
2361.000000	11.278343
2362.000000	11.275350
2363.000000	11.296445
2364.000000	11.316692
2365.000000	11.326047
2366.000000	11.324828
2367.000000	11.331833
2368.000000	11.338240
2369.000000	11.350035
2370.000000	11.370415
2371.000000	11.397950
2372.000000	11.418277
2373.000000	11.443608
2374.000000	11.458942
2375.000000	11.470200
2376.000000	11.494943
2377.000000	11.512118
2378.000000	11.530782
2379.000000	11.561273
2380.000000	11.591072
2381.000000	11.604658
2382.000000	11.624910
2383.000000	11.620318
2384.000000	11.630170
2385.000000	11.657130
2386.000000	11.682102
2387.000000	11.690452
2388.000000	11.701412
2389.000000	11.697210
2390.000000	11.699758
2391.000000	11.716848
2392.000000	11.731850
2393.000000	11.744483
2394.000000	11.747402
2395.000000	11.743595
2396.000000	11.726252
2397.000000	11.737383
2398.000000	11.763315
2399.000000	11.786758
2400.000000	11.788840
2401.000000	11.783753
2402.000000	11.782665
2403.000000	11.775645
2404.000000	11.771022
2405.000000	11.767210
2406.000000	11.772258
2407.000000	11.756832
2408.000000	11.730585
2409.000000	11.693932
2410.000000	11.679055
2411.000000	11.651063
2412.000000	11.643320
2413.000000	11.641858
2414.000000	11.643395
2415.000000	11.623885
2416.000000	11.608975
2417.000000	11.588558
2418.000000	11.558227
2419.000000	11.535205
2420.000000	11.534648
2421.000000	11.527922
2422.000000	11.507923
2423.000000	11.481618
2424.000000	11.439180
2425.000000	11.408608
2426.000000	11.371303
2427.000000	11.355425
2428.000000	11.342335
2429.000000	11.316512
2430.000000	11.264155
2431.000000	11.209805
2432.000000	11.157100
2433.000000	11.121625
2434.000000	11.091550
2435.000000	11.063785
2436.000000	10.986648
2437.000000	10.934017
2438.000000	10.874385
2439.000000	10.833615
2440.000000	10.804047
2441.000000	10.774280
2442.000000	10.732405
2443.000000	10.676425
2444.000000	10.631860
2445.000000	10.593303
2446.000000	10.593578
2447.000000	10.584890
2448.000000	10.546072
2449.000000	10.508553
2450.000000	10.465093
2451.000000	10.437412
2452.000000	10.441390
2453.000000	10.435025
2454.000000	10.414593
2455.000000	10.408375
2456.000000	10.446825
2457.000000	10.421780
2458.000000	10.409785
2459.000000	10.425045
2460.000000	10.408565
2461.000000	10.416963
2462.000000	10.426993
2463.000000	10.490000
2464.000000	10.491377
2465.000000	10.539478
2466.000000	10.531520
2467.000000	10.580500
2468.000000	10.671395
2469.000000	10.692587
2470.000000	10.754600
2471.000000	10.793617
2472.000000	10.872840
2473.000000	10.910885
2474.000000	11.073090
2475.000000	11.119110
2476.000000	11.279405
2477.000000	11.358682
2478.000000	11.486190
2479.000000	11.619165
2480.000000	11.709705
2481.000000	11.818320
2482.000000	11.910560
2483.000000	12.032545
2484.000000	12.078205
2485.000000	12.255138
2486.000000	12.329870
2487.000000	12.433485
2488.000000	12.519588
2489.000000	12.662937
2490.000000	12.827195
2491.000000	12.959860
2492.000000	13.109060
2493.000000	13.304972
2494.000000	13.531012
2495.000000	13.643938
2496.000000	13.795440
2497.000000	13.991452
2498.000000	14.173787
2499.000000	14.382592
2500.000000	14.544090
2501.000000	18.127833
2502.000000	21.913795
2503.000000	25.947005
2504.000000	29.844350
2505.000000	33.775708
2506.000000	37.845745
2507.000000	42.127445
2508.000000	46.424273
2509.000000	51.022165
2510.000000	55.343140
2511.000000	56.523900
2512.000000	57.956290
2513.000000	59.015300
2514.000000	60.040340
2515.000000	61.003840
2516.000000	61.468760
2517.000000	62.881040
2518.000000	63.536880
2519.000000	64.353410
2520.000000	65.384400
2521.000000	66.180670
2522.000000	66.753320
2523.000000	67.402690
2524.000000	67.973000
2525.000000	68.967150
2526.000000	70.341140
2527.000000	70.606420
2528.000000	71.539710
2529.000000	71.821860
2530.000000	72.599160
2531.000000	73.704710
2532.000000	74.206520
2533.000000	74.612620
2534.000000	75.549020
2535.000000	76.516700
2536.000000	77.470650
2537.000000	78.054290
2538.000000	78.710420
2539.000000	80.001650
2540.000000	81.034350
2541.000000	81.403140
2542.000000	82.443520
2543.000000	83.255690
2544.000000	83.956430
2545.000000	84.259900
2546.000000	84.990420
2547.000000	86.314140
2548.000000	87.262690
2549.000000	87.923080
2550.000000	88.695970
2551.000000	89.057030
2552.000000	89.405300
2553.000000	89.804620
2554.000000	90.194500
2555.000000	90.750290
2556.000000	90.769910
2557.000000	90.632780
2558.000000	90.724250
2559.000000	90.812220
2560.000000	90.563480
2561.000000	91.389240
2562.000000	92.217650
2563.000000	93.286900
2564.000000	94.406560
2565.000000	94.464240
2566.000000	94.677010
2567.000000	95.036930
2568.000000	95.637350
2569.000000	95.814980
2570.000000	96.207330
2571.000000	96.350900
2572.000000	96.211820
2573.000000	95.801920
2574.000000	95.014120
2575.000000	95.382460
2576.000000	96.135620
2577.000000	96.959740
2578.000000	97.767530
2579.000000	98.756550
2580.000000	99.146780
2581.000000	99.003190
2582.000000	99.626000
2583.000000	100.760560
2584.000000	101.769860
2585.000000	102.373380
2586.000000	101.827730
2587.000000	101.071260
2588.000000	100.632090
2589.000000	100.569380
2590.000000	100.547670
2591.000000	100.747530
2592.000000	99.963250
2593.000000	98.894090
2594.000000	98.502510
2595.000000	97.864210
2596.000000	97.544280
2597.000000	97.622070
2598.000000	97.870680
2599.000000	97.638040
2600.000000	97.617840
2601.000000	97.565840
2602.000000	97.726590
2603.000000	98.412340
2604.000000	98.848330
2605.000000	99.380000
2606.000000	99.904700
2607.000000	100.281110
2608.000000	100.346430
2609.000000	100.032190
2610.000000	99.749400
2611.000000	100.158970
2612.000000	100.662830
2613.000000	100.708300
2614.000000	100.366780
2615.000000	100.248460
2616.000000	100.536600
2617.000000	100.036240
2618.000000	99.705470
2619.000000	100.388070
2620.000000	101.132050
2621.000000	101.075970
2622.000000	100.580460
2623.000000	100.499040
2624.000000	100.783960
2625.000000	101.521470
2626.000000	102.050850
2627.000000	102.523330
2628.000000	102.652030
2629.000000	102.233250
2630.000000	101.357370
2631.000000	101.183220
2632.000000	101.732050
2633.000000	101.753880
2634.000000	101.668620
2635.000000	100.749630
2636.000000	99.845570
2637.000000	99.589630
2638.000000	99.373560
2639.000000	99.079160
2640.000000	99.352130
2641.000000	99.703620
2642.000000	100.069290
2643.000000	100.136210
2644.000000	100.406910
2645.000000	101.000610
2646.000000	101.248670
2647.000000	101.931470
2648.000000	102.481890
2649.000000	102.771450
2650.000000	102.983780
2651.000000	102.969480
2652.000000	103.103440
2653.000000	103.246210
2654.000000	102.605180
2655.000000	102.514520
2656.000000	103.123800
2657.000000	102.392730
2658.000000	101.457400
2659.000000	101.445350
2660.000000	101.198870
2661.000000	100.677430
2662.000000	101.192830
2663.000000	101.514460
2664.000000	101.866500
2665.000000	101.279860
2666.000000	101.160160
2667.000000	102.025270
2668.000000	102.722850
2669.000000	102.560790
2670.000000	102.878000
2671.000000	103.329220
2672.000000	102.026620
2673.000000	101.535520
2674.000000	101.518440
2675.000000	101.644890
2676.000000	101.774380
2677.000000	101.903780
2678.000000	102.338060
2679.000000	102.926800
2680.000000	103.687040
2681.000000	104.306190
2682.000000	103.614460
2683.000000	102.926810
2684.000000	102.679200
2685.000000	103.403130
2686.000000	103.585870
2687.000000	102.961060
2688.000000	102.862970
2689.000000	102.712780
2690.000000	102.321120
2691.000000	101.768410
2692.000000	103.439000
2693.000000	104.056100
2694.000000	104.763320
2695.000000	104.476680
2696.000000	103.584700
2697.000000	103.537780
2698.000000	103.369470
2699.000000	103.452700
2700.000000	103.352440
2701.000000	103.189730
2702.000000	102.475560
2703.000000	102.950610
2704.000000	102.381580
2705.000000	102.012130
2706.000000	102.477350
2707.000000	101.757060
2708.000000	101.099330
2709.000000	100.174230
2710.000000	99.922890
2711.000000	100.151480
2712.000000	99.601920
2713.000000	99.750520
2714.000000	99.345550
2715.000000	100.116640
2716.000000	100.502930
2717.000000	101.193120
2718.000000	102.273230
2719.000000	103.371030
2720.000000	102.190850
2721.000000	102.136790
2722.000000	102.403720
2723.000000	101.300940
2724.000000	101.611220
2725.000000	100.684450
2726.000000	99.805050
2727.000000	101.119870
2728.000000	100.706200
2729.000000	100.634150
2730.000000	101.877330
2731.000000	101.663820
2732.000000	102.713980
2733.000000	103.307990
2734.000000	103.321920
2735.000000	104.156260
2736.000000	104.559270
2737.000000	103.357080
2738.000000	103.675230
2739.000000	103.684190
2740.000000	103.952440
2741.000000	104.473130
2742.000000	103.148810
2743.000000	102.467240
2744.000000	102.247310
2745.000000	103.080860
2746.000000	104.518200
2747.000000	104.542450
2748.000000	104.247160
2749.000000	103.797660
2750.000000	102.961720
2751.000000	103.277820
2752.000000	104.206000
2753.000000	104.707970
2754.000000	104.822500
2755.000000	103.773490
2756.000000	103.199880
2757.000000	102.758760
2758.000000	102.207570
2759.000000	102.574790
2760.000000	103.495640
2761.000000	101.711360
2762.000000	100.370460
2763.000000	99.952100
2764.000000	101.052790
2765.000000	99.962940
2766.000000	99.582990
2767.000000	99.942600
2768.000000	100.778610
2769.000000	100.532500
2770.000000	99.732150
2771.000000	100.439250
2772.000000	101.721480
2773.000000	101.665530
2774.000000	100.440960
2775.000000	100.619350
2776.000000	99.668140
2777.000000	99.962600
2778.000000	99.129720
2779.000000	99.031730
2780.000000	99.429870
2781.000000	99.522400
2782.000000	98.906740
2783.000000	99.807520
2784.000000	100.090300
2785.000000	100.956460
2786.000000	101.645970
2787.000000	101.697410
2788.000000	101.147310
2789.000000	100.683920
2790.000000	100.666780
2791.000000	100.797730
2792.000000	101.041460
2793.000000	100.071740
2794.000000	100.363940
2795.000000	100.875020
2796.000000	100.543170
2797.000000	99.601410
2798.000000	100.827410
2799.000000	101.229590
2800.000000	101.605880
2801.000000	102.424180
2802.000000	102.512370
2803.000000	103.138710
2804.000000	103.058730
2805.000000	102.253100
2806.000000	102.748570
2807.000000	103.248040
2808.000000	102.494530
2809.000000	102.063950
2810.000000	101.814770
2811.000000	100.744690
2812.000000	99.890510
2813.000000	100.075850
2814.000000	99.920790
2815.000000	99.920690
2816.000000	99.640410
2817.000000	100.199550
2818.000000	100.565340
2819.000000	101.318540
2820.000000	101.006610
2821.000000	101.370600
2822.000000	102.154040
2823.000000	101.681710
2824.000000	101.342340
2825.000000	101.550920
2826.000000	101.324880
2827.000000	101.169360
2828.000000	100.969040
2829.000000	100.843280
2830.000000	101.541010
2831.000000	101.854670
2832.000000	101.948960
2833.000000	101.888030
2834.000000	102.309110
2835.000000	102.567630
2836.000000	102.385030
2837.000000	101.768650
2838.000000	101.745710
2839.000000	101.691220
2840.000000	101.547610
2841.000000	100.768380
2842.000000	100.477920
2843.000000	101.100980
2844.000000	101.153710
2845.000000	100.901340
2846.000000	101.570740
2847.000000	102.429980
2848.000000	102.914340
2849.000000	102.951330
2850.000000	102.861120
2851.000000	103.924540
2852.000000	104.386450
2853.000000	104.711120
2854.000000	105.482810
2855.000000	106.022350
2856.000000	105.716450
2857.000000	105.137750
2858.000000	104.937540
2859.000000	104.892290
2860.000000	104.566580
2861.000000	103.113470
2862.000000	102.070980
2863.000000	101.915980
2864.000000	101.515730
2865.000000	100.830960
2866.000000	100.023760
2867.000000	99.398340
2868.000000	99.142690
2869.000000	98.486720
2870.000000	98.427710
2871.000000	99.539110
2872.000000	100.001240
2873.000000	99.816350
2874.000000	100.050870
2875.000000	100.181470
2876.000000	101.256270
2877.000000	102.143780
2878.000000	102.080340
2879.000000	102.738120
2880.000000	102.813940
2881.000000	102.030660
2882.000000	101.624190
2883.000000	101.029330
2884.000000	100.874080
2885.000000	101.590470
2886.000000	101.661910
2887.000000	101.892120
2888.000000	102.502860
2889.000000	102.498330
2890.000000	102.795170
2891.000000	103.648800
2892.000000	104.154330
2893.000000	103.960030
2894.000000	102.988790
2895.000000	101.920780
2896.000000	100.827080
2897.000000	99.759630
2898.000000	98.802640
2899.000000	98.966160
2900.000000	98.706860
2901.000000	98.052610
2902.000000	97.633260
2903.000000	97.573080
2904.000000	97.491190
2905.000000	97.407400
2906.000000	98.920390
2907.000000	100.434370
2908.000000	101.630380
2909.000000	101.195700
2910.000000	101.431520
2911.000000	102.791860
2912.000000	103.138700
2913.000000	103.941190
2914.000000	104.941070
2915.000000	105.759530
2916.000000	105.340010
2917.000000	105.109470
2918.000000	104.604100
2919.000000	104.768600
2920.000000	104.179020
2921.000000	103.621070
2922.000000	104.191690
2923.000000	103.774630
2924.000000	103.493870
2925.000000	102.514440
2926.000000	101.549900
2927.000000	100.362900
2928.000000	100.266890
2929.000000	100.289380
2930.000000	100.233580
2931.000000	99.453900
2932.000000	99.186220
2933.000000	99.188560
2934.000000	99.420830
2935.000000	100.555580
2936.000000	101.753040
2937.000000	103.473100
2938.000000	103.739770
2939.000000	103.195040
2940.000000	103.972810
2941.000000	105.082130
2942.000000	105.023200
2943.000000	105.619990
2944.000000	105.645750
2945.000000	105.143660
2946.000000	105.143140
2947.000000	104.027680
2948.000000	103.932880
2949.000000	104.822690
2950.000000	104.709270
2951.000000	104.099320
2952.000000	103.612510
2953.000000	101.993010
2954.000000	100.811590
2955.000000	100.370860
2956.000000	99.573440
2957.000000	99.617170
2958.000000	98.825110
2959.000000	97.504610
2960.000000	96.780090
2961.000000	96.701790
2962.000000	97.647690
2963.000000	99.263820
2964.000000	100.417620
2965.000000	100.705070
2966.000000	100.386230
2967.000000	100.516340
2968.000000	101.138110
2969.000000	102.011210
2970.000000	102.129990
2971.000000	102.948270
2972.000000	102.683130
2973.000000	102.531900
2974.000000	101.842920
2975.000000	100.994830
2976.000000	101.387870
2977.000000	101.171070
2978.000000	100.992700
2979.000000	101.676680
2980.000000	102.572390
2981.000000	101.873470
2982.000000	101.363140
2983.000000	100.776310
2984.000000	101.313160
2985.000000	102.528260
2986.000000	102.642390
2987.000000	102.361090
2988.000000	102.630960
2989.000000	102.255340
2990.000000	101.502520
2991.000000	101.304840
2992.000000	101.716220
2993.000000	101.725400
2994.000000	102.249040
2995.000000	101.676080
2996.000000	101.223870
2997.000000	101.628960
2998.000000	101.218580
2999.000000	101.194140
3000.000000	101.904640
