PE UV       SUBTECH     SPECTRUM    ASCII       PEDS        4.00        
   -1
P.GRAT.3610-TX3.ASC
23/11/30
13:34:42.00
23/11/30
13:34:42.00
Vinicio Soto Monge
PTENOMELA GRATIOSA 03610
250,000000
1
Lambda 1050
1050L1511233
PerkinElmer UV WinLab 6.3.2.0749 / 2.02.05 Lambda 900 UV/VIS/NIR, Aug  7 2015 09:38:08

0
0
3350/servo 860,8/2
0
0
UV/VIS
1
1
1
DoubleDePol,CommonBeamDepol,RBeamAtt,SBeamAtt,60mm sphere, WB InGaAs Detector
0
0
0
0
Program
Program
3350/servo 860,8/2
3350/0,4 860,8/0,4
3350/0,4 860,8/0,4
0
20.00
 
 
 
0
 
860,8
319,2
860,8
Front
100
on
S:100 R:100
0
0
0
0
 
0
 
 
 
0
 
 
0
0
0
0
0
 
 
 
 
0
0


0
0
#HDR
-1
-1
#GR
nm
%T
1.0
0.0
2200,000000
-1,000000
1951
8
63,190396
0,115787
#DATA
284.000000	0.155975
285.000000	0.157045
286.000000	0.158213
287.000000	0.159407
288.000000	0.160639
289.000000	0.161679
290.000000	0.162985
291.000000	0.164023
292.000000	0.164377
293.000000	0.165096
294.000000	0.166057
295.000000	0.167159
296.000000	0.168191
297.000000	0.168826
298.000000	0.170150
299.000000	0.171138
300.000000	0.172092
301.000000	0.173602
302.000000	0.174670
303.000000	0.175243
304.000000	0.176225
305.000000	0.176874
306.000000	0.177883
307.000000	0.178734
308.000000	0.179532
309.000000	0.180941
310.000000	0.182450
311.000000	0.183359
312.000000	0.185029
313.000000	0.186149
314.000000	0.187460
315.000000	0.188573
316.000000	0.189124
317.000000	0.188621
318.000000	0.192254
319.000000	0.194886
320.000000	0.197062
321.000000	0.198865
322.000000	0.201065
323.000000	0.203891
324.000000	0.206309
325.000000	0.209115
326.000000	0.211438
327.000000	0.215226
328.000000	0.218185
329.000000	0.220536
330.000000	0.221559
331.000000	0.223872
332.000000	0.226907
333.000000	0.229375
334.000000	0.232502
335.000000	0.234984
336.000000	0.237001
337.000000	0.239072
338.000000	0.242486
339.000000	0.245564
340.000000	0.248266
341.000000	0.250595
342.000000	0.253113
343.000000	0.255787
344.000000	0.257734
345.000000	0.260483
346.000000	0.263104
347.000000	0.265387
348.000000	0.268367
349.000000	0.270777
350.000000	0.273504
351.000000	0.276374
352.000000	0.280649
353.000000	0.280916
354.000000	0.281573
355.000000	0.283065
356.000000	0.285574
357.000000	0.287475
358.000000	0.289372
359.000000	0.291122
360.000000	0.292547
361.000000	0.294762
362.000000	0.296009
363.000000	0.297656
364.000000	0.299389
365.000000	0.302533
366.000000	0.304278
367.000000	0.306226
368.000000	0.308023
369.000000	0.309581
370.000000	0.312143
371.000000	0.315176
372.000000	0.317242
373.000000	0.318914
374.000000	0.320471
375.000000	0.321871
376.000000	0.323815
377.000000	0.325952
378.000000	0.328123
379.000000	0.330507
380.000000	0.331857
381.000000	0.333372
382.000000	0.335238
383.000000	0.336783
384.000000	0.338711
385.000000	0.340453
386.000000	0.342334
387.000000	0.344336
388.000000	0.346584
389.000000	0.348885
390.000000	0.350943
391.000000	0.352348
392.000000	0.353784
393.000000	0.355075
394.000000	0.356808
395.000000	0.358272
396.000000	0.359595
397.000000	0.360613
398.000000	0.361967
399.000000	0.363611
400.000000	0.364860
401.000000	0.366132
402.000000	0.367358
403.000000	0.368739
404.000000	0.370114
405.000000	0.370942
406.000000	0.371533
407.000000	0.372941
408.000000	0.373813
409.000000	0.374931
410.000000	0.376234
411.000000	0.377407
412.000000	0.378434
413.000000	0.379278
414.000000	0.380022
415.000000	0.380828
416.000000	0.381774
417.000000	0.382657
418.000000	0.383471
419.000000	0.384156
420.000000	0.384791
421.000000	0.385387
422.000000	0.386034
423.000000	0.386603
424.000000	0.387079
425.000000	0.387516
426.000000	0.387941
427.000000	0.388404
428.000000	0.388795
429.000000	0.389077
430.000000	0.389428
431.000000	0.389787
432.000000	0.390058
433.000000	0.390273
434.000000	0.390567
435.000000	0.390912
436.000000	0.391201
437.000000	0.391458
438.000000	0.391734
439.000000	0.392058
440.000000	0.392362
441.000000	0.392617
442.000000	0.392910
443.000000	0.393216
444.000000	0.393455
445.000000	0.393666
446.000000	0.393843
447.000000	0.393855
448.000000	0.393885
449.000000	0.393913
450.000000	0.393922
451.000000	0.393932
452.000000	0.393899
453.000000	0.393848
454.000000	0.393856
455.000000	0.393868
456.000000	0.393873
457.000000	0.393842
458.000000	0.393822
459.000000	0.393878
460.000000	0.393916
461.000000	0.393937
462.000000	0.393897
463.000000	0.393829
464.000000	0.393799
465.000000	0.393738
466.000000	0.393605
467.000000	0.393442
468.000000	0.393408
469.000000	0.393374
470.000000	0.393294
471.000000	0.393265
472.000000	0.393256
473.000000	0.393278
474.000000	0.393238
475.000000	0.393226
476.000000	0.393284
477.000000	0.393319
478.000000	0.393333
479.000000	0.393335
480.000000	0.393416
481.000000	0.393555
482.000000	0.393864
483.000000	0.394204
484.000000	0.394573
485.000000	0.394914
486.000000	0.395373
487.000000	0.395933
488.000000	0.396614
489.000000	0.397351
490.000000	0.398166
491.000000	0.399085
492.000000	0.400161
493.000000	0.401311
494.000000	0.402572
495.000000	0.403926
496.000000	0.405460
497.000000	0.407098
498.000000	0.408849
499.000000	0.410726
500.000000	0.412844
501.000000	0.415226
502.000000	0.417804
503.000000	0.420622
504.000000	0.423618
505.000000	0.426909
506.000000	0.430526
507.000000	0.434522
508.000000	0.438864
509.000000	0.443639
510.000000	0.448717
511.000000	0.454227
512.000000	0.460285
513.000000	0.466789
514.000000	0.473953
515.000000	0.481637
516.000000	0.489848
517.000000	0.498624
518.000000	0.508070
519.000000	0.518192
520.000000	0.529115
521.000000	0.540822
522.000000	0.553363
523.000000	0.566806
524.000000	0.581179
525.000000	0.596569
526.000000	0.612917
527.000000	0.630218
528.000000	0.648660
529.000000	0.668141
530.000000	0.688778
531.000000	0.710514
532.000000	0.733420
533.000000	0.757573
534.000000	0.782964
535.000000	0.809587
536.000000	0.837362
537.000000	0.866489
538.000000	0.896829
539.000000	0.928626
540.000000	0.961702
541.000000	0.996156
542.000000	1.032047
543.000000	1.069318
544.000000	1.108046
545.000000	1.148301
546.000000	1.190015
547.000000	1.233134
548.000000	1.277662
549.000000	1.323719
550.000000	1.371282
551.000000	1.420411
552.000000	1.471101
553.000000	1.523529
554.000000	1.577599
555.000000	1.633364
556.000000	1.690799
557.000000	1.749990
558.000000	1.810936
559.000000	1.873478
560.000000	1.937844
561.000000	2.004233
562.000000	2.072493
563.000000	2.142586
564.000000	2.214639
565.000000	2.288516
566.000000	2.364197
567.000000	2.441735
568.000000	2.520848
569.000000	2.601794
570.000000	2.684263
571.000000	2.768385
572.000000	2.854156
573.000000	2.941195
574.000000	3.029618
575.000000	3.119389
576.000000	3.210260
577.000000	3.302229
578.000000	3.395361
579.000000	3.489360
580.000000	3.584356
581.000000	3.680384
582.000000	3.777332
583.000000	3.875012
584.000000	3.973585
585.000000	4.072809
586.000000	4.172682
587.000000	4.273173
588.000000	4.373916
589.000000	4.475077
590.000000	4.576527
591.000000	4.678102
592.000000	4.779847
593.000000	4.881460
594.000000	4.983494
595.000000	5.085100
596.000000	5.186295
597.000000	5.287121
598.000000	5.387465
599.000000	5.487205
600.000000	5.586287
601.000000	5.684468
602.000000	5.781661
603.000000	5.877906
604.000000	5.972989
605.000000	6.066863
606.000000	6.159773
607.000000	6.251016
608.000000	6.341019
609.000000	6.429673
610.000000	6.516854
611.000000	6.602651
612.000000	6.686993
613.000000	6.769878
614.000000	6.851110
615.000000	6.930890
616.000000	7.008903
617.000000	7.085338
618.000000	7.160353
619.000000	7.233486
620.000000	7.305125
621.000000	7.374984
622.000000	7.443229
623.000000	7.510042
624.000000	7.575418
625.000000	7.639417
626.000000	7.702339
627.000000	7.763865
628.000000	7.824573
629.000000	7.884088
630.000000	7.943460
631.000000	8.002684
632.000000	8.062045
633.000000	8.121909
634.000000	8.182614
635.000000	8.244612
636.000000	8.308603
637.000000	8.374956
638.000000	8.443971
639.000000	8.516171
640.000000	8.592366
641.000000	8.672498
642.000000	8.757891
643.000000	8.848880
644.000000	8.945602
645.000000	9.048631
646.000000	9.158249
647.000000	9.274803
648.000000	9.398937
649.000000	9.531030
650.000000	9.671296
651.000000	9.820391
652.000000	9.978346
653.000000	10.145100
654.000000	10.321139
655.000000	10.506438
656.000000	10.700777
657.000000	10.904331
658.000000	11.116649
659.000000	11.338212
660.000000	11.568794
661.000000	11.807902
662.000000	12.055804
663.000000	12.312196
664.000000	12.576509
665.000000	12.848064
666.000000	13.126369
667.000000	13.411423
668.000000	13.702690
669.000000	13.999909
670.000000	14.302197
671.000000	14.608760
672.000000	14.919244
673.000000	15.233324
674.000000	15.550087
675.000000	15.868825
676.000000	16.189133
677.000000	16.509766
678.000000	16.830278
679.000000	17.150591
680.000000	17.470101
681.000000	17.788252
682.000000	18.104427
683.000000	18.418323
684.000000	18.729607
685.000000	19.037587
686.000000	19.341935
687.000000	19.642008
688.000000	19.937967
689.000000	20.229678
690.000000	20.516638
691.000000	20.799433
692.000000	21.077449
693.000000	21.350999
694.000000	21.619326
695.000000	21.882653
696.000000	22.141154
697.000000	22.394499
698.000000	22.642491
699.000000	22.885874
700.000000	23.125126
701.000000	23.360352
702.000000	23.590720
703.000000	23.816824
704.000000	24.038528
705.000000	24.256080
706.000000	24.470356
707.000000	24.680999
708.000000	24.887835
709.000000	25.091501
710.000000	25.291748
711.000000	25.488913
712.000000	25.683973
713.000000	25.876794
714.000000	26.066956
715.000000	26.254569
716.000000	26.439834
717.000000	26.622867
718.000000	26.803207
719.000000	26.981535
720.000000	27.158432
721.000000	27.333135
722.000000	27.506243
723.000000	27.677930
724.000000	27.847025
725.000000	28.014651
726.000000	28.180538
727.000000	28.344987
728.000000	28.508041
729.000000	28.669514
730.000000	28.828781
731.000000	28.987192
732.000000	29.144880
733.000000	29.300880
734.000000	29.455884
735.000000	29.608716
736.000000	29.760040
737.000000	29.911146
738.000000	30.061362
739.000000	30.210106
740.000000	30.357926
741.000000	30.503894
742.000000	30.649753
743.000000	30.795027
744.000000	30.938841
745.000000	31.081544
746.000000	31.223061
747.000000	31.363153
748.000000	31.502583
749.000000	31.640309
750.000000	31.776814
751.000000	31.912971
752.000000	32.048313
753.000000	32.182437
754.000000	32.315205
755.000000	32.446803
756.000000	32.578534
757.000000	32.708300
758.000000	32.836666
759.000000	32.965337
760.000000	33.092494
761.000000	33.217493
762.000000	33.342493
763.000000	33.467495
764.000000	33.591912
765.000000	33.715321
766.000000	33.837559
767.000000	33.958209
768.000000	34.078284
769.000000	34.199130
770.000000	34.320102
771.000000	34.439069
772.000000	34.555993
773.000000	34.672122
774.000000	34.788383
775.000000	34.903425
776.000000	35.017880
777.000000	35.129959
778.000000	35.241499
779.000000	35.352862
780.000000	35.463969
781.000000	35.573693
782.000000	35.682439
783.000000	35.790097
784.000000	35.897380
785.000000	36.005051
786.000000	36.111512
787.000000	36.217665
788.000000	36.323320
789.000000	36.428311
790.000000	36.532636
791.000000	36.633933
792.000000	36.734569
793.000000	36.835348
794.000000	36.934407
795.000000	37.033694
796.000000	37.133977
797.000000	37.231006
798.000000	37.326580
799.000000	37.422492
800.000000	37.518824
801.000000	37.613901
802.000000	37.707799
803.000000	37.801495
804.000000	37.893797
805.000000	37.982739
806.000000	38.073304
807.000000	38.163858
808.000000	38.253882
809.000000	38.340666
810.000000	38.428472
811.000000	38.516209
812.000000	38.601261
813.000000	38.684845
814.000000	38.768863
815.000000	38.851576
816.000000	38.934555
817.000000	39.017638
818.000000	39.100245
819.000000	39.183972
820.000000	39.265119
821.000000	39.345270
822.000000	39.423736
823.000000	39.501700
824.000000	39.580516
825.000000	39.658197
826.000000	39.734971
827.000000	39.813990
828.000000	39.889234
829.000000	39.966554
830.000000	40.040315
831.000000	40.115589
832.000000	40.189602
833.000000	40.264704
834.000000	40.336815
835.000000	40.407592
836.000000	40.475804
837.000000	40.548665
838.000000	40.619378
839.000000	40.690627
840.000000	40.761870
841.000000	40.833286
842.000000	40.899247
843.000000	40.964134
844.000000	41.033905
845.000000	41.098504
846.000000	41.162723
847.000000	41.230560
848.000000	41.291753
849.000000	41.360114
850.000000	41.425900
851.000000	41.489348
852.000000	41.552346
853.000000	41.615480
854.000000	41.675284
855.000000	41.736697
856.000000	41.795031
857.000000	41.862253
858.000000	41.930055
859.000000	42.015522
860.000000	42.099867
861.000000	42.180352
862.000000	42.271376
863.000000	42.343682
864.000000	42.422094
865.000000	42.510578
866.000000	42.614551
867.000000	42.710919
868.000000	42.794785
869.000000	42.874729
870.000000	42.932216
871.000000	42.996657
872.000000	43.087131
873.000000	43.160919
874.000000	43.243906
875.000000	43.335846
876.000000	43.411819
877.000000	43.502975
878.000000	43.577740
879.000000	43.662208
880.000000	43.720353
881.000000	43.786062
882.000000	43.846563
883.000000	43.915349
884.000000	43.969554
885.000000	44.060848
886.000000	44.145513
887.000000	44.217028
888.000000	44.296684
889.000000	44.365484
890.000000	44.416624
891.000000	44.505521
892.000000	44.555576
893.000000	44.602146
894.000000	44.648451
895.000000	44.709840
896.000000	44.742901
897.000000	44.784496
898.000000	44.839036
899.000000	44.881166
900.000000	44.925185
901.000000	44.941524
902.000000	44.961028
903.000000	45.004144
904.000000	45.055546
905.000000	45.111945
906.000000	45.169671
907.000000	45.218870
908.000000	45.257194
909.000000	45.286080
910.000000	45.315730
911.000000	45.345721
912.000000	45.364694
913.000000	45.413330
914.000000	45.423129
915.000000	45.480754
916.000000	45.526443
917.000000	45.565579
918.000000	45.600127
919.000000	45.641792
920.000000	45.649009
921.000000	45.668238
922.000000	45.710866
923.000000	45.730911
924.000000	45.769225
925.000000	45.822116
926.000000	45.845194
927.000000	45.886196
928.000000	45.943562
929.000000	45.968048
930.000000	45.967354
931.000000	46.026972
932.000000	46.058152
933.000000	46.086230
934.000000	46.114755
935.000000	46.134997
936.000000	46.171899
937.000000	46.212280
938.000000	46.237182
939.000000	46.258276
940.000000	46.286053
941.000000	46.295939
942.000000	46.296671
943.000000	46.346490
944.000000	46.369831
945.000000	46.383369
946.000000	46.421954
947.000000	46.464450
948.000000	46.488350
949.000000	46.518727
950.000000	46.525081
951.000000	46.541036
952.000000	46.589594
953.000000	46.642569
954.000000	46.686751
955.000000	46.717108
956.000000	46.738124
957.000000	46.739372
958.000000	46.757376
959.000000	46.773445
960.000000	46.780597
961.000000	46.783908
962.000000	46.804603
963.000000	46.829432
964.000000	46.865867
965.000000	46.906536
966.000000	46.926284
967.000000	46.944314
968.000000	46.966046
969.000000	46.993172
970.000000	47.024891
971.000000	47.050561
972.000000	47.071726
973.000000	47.092989
974.000000	47.108237
975.000000	47.125774
976.000000	47.139449
977.000000	47.147067
978.000000	47.150755
979.000000	47.181951
980.000000	47.206118
981.000000	47.217944
982.000000	47.229956
983.000000	47.240403
984.000000	47.266356
985.000000	47.306394
986.000000	47.344611
987.000000	47.357643
988.000000	47.367205
989.000000	47.399777
990.000000	47.428941
991.000000	47.452263
992.000000	47.489943
993.000000	47.517413
994.000000	47.539054
995.000000	47.574242
996.000000	47.600009
997.000000	47.621815
998.000000	47.634252
999.000000	47.646966
1000.000000	47.667173
1001.000000	47.681611
1002.000000	47.706045
1003.000000	47.742183
1004.000000	47.771877
1005.000000	47.792375
1006.000000	47.808115
1007.000000	47.842009
1008.000000	47.873530
1009.000000	47.890551
1010.000000	47.914308
1011.000000	47.951651
1012.000000	47.989053
1013.000000	48.016435
1014.000000	48.024572
1015.000000	48.030909
1016.000000	48.046590
1017.000000	48.061334
1018.000000	48.089269
1019.000000	48.124970
1020.000000	48.138751
1021.000000	48.144054
1022.000000	48.151551
1023.000000	48.163561
1024.000000	48.152720
1025.000000	48.164143
1026.000000	48.188470
1027.000000	48.209736
1028.000000	48.229768
1029.000000	48.246066
1030.000000	48.265394
1031.000000	48.281930
1032.000000	48.303486
1033.000000	48.326375
1034.000000	48.345705
1035.000000	48.375551
1036.000000	48.396147
1037.000000	48.404197
1038.000000	48.410633
1039.000000	48.414451
1040.000000	48.431858
1041.000000	48.453070
1042.000000	48.459270
1043.000000	48.462601
1044.000000	48.470845
1045.000000	48.493517
1046.000000	48.520490
1047.000000	48.530692
1048.000000	48.535592
1049.000000	48.557630
1050.000000	48.584909
1051.000000	48.607587
1052.000000	48.626752
1053.000000	48.639984
1054.000000	48.648077
1055.000000	48.662074
1056.000000	48.686797
1057.000000	48.709424
1058.000000	48.728525
1059.000000	48.749630
1060.000000	48.774871
1061.000000	48.787686
1062.000000	48.799145
1063.000000	48.820816
1064.000000	48.854173
1065.000000	48.864870
1066.000000	48.884164
1067.000000	48.915720
1068.000000	48.929168
1069.000000	48.951549
1070.000000	48.957304
1071.000000	48.964634
1072.000000	48.962749
1073.000000	48.972091
1074.000000	48.999527
1075.000000	49.007866
1076.000000	49.014781
1077.000000	49.029351
1078.000000	49.040885
1079.000000	49.069617
1080.000000	49.085980
1081.000000	49.098449
1082.000000	49.124003
1083.000000	49.155915
1084.000000	49.182089
1085.000000	49.215945
1086.000000	49.215777
1087.000000	49.206907
1088.000000	49.219013
1089.000000	49.236286
1090.000000	49.249901
1091.000000	49.267929
1092.000000	49.293032
1093.000000	49.318994
1094.000000	49.338672
1095.000000	49.346555
1096.000000	49.353419
1097.000000	49.361802
1098.000000	49.379514
1099.000000	49.396857
1100.000000	49.423342
1101.000000	49.448677
1102.000000	49.464293
1103.000000	49.484264
1104.000000	49.485380
1105.000000	49.493535
1106.000000	49.510922
1107.000000	49.545101
1108.000000	49.556526
1109.000000	49.565699
1110.000000	49.579435
1111.000000	49.590521
1112.000000	49.593648
1113.000000	49.626111
1114.000000	49.650717
1115.000000	49.656957
1116.000000	49.679782
1117.000000	49.687078
1118.000000	49.712782
1119.000000	49.702261
1120.000000	49.709179
1121.000000	49.743493
1122.000000	49.779882
1123.000000	49.805519
1124.000000	49.813651
1125.000000	49.843815
1126.000000	49.849485
1127.000000	49.841610
1128.000000	49.855648
1129.000000	49.875033
1130.000000	49.893124
1131.000000	49.913201
1132.000000	49.940819
1133.000000	49.947455
1134.000000	49.969655
1135.000000	49.980009
1136.000000	49.957025
1137.000000	49.958930
1138.000000	49.963013
1139.000000	49.989611
1140.000000	50.003380
1141.000000	50.025738
1142.000000	50.027165
1143.000000	50.050424
1144.000000	50.058321
1145.000000	50.075894
1146.000000	50.094851
1147.000000	50.104403
1148.000000	50.084558
1149.000000	50.084151
1150.000000	50.081948
1151.000000	50.067088
1152.000000	50.072552
1153.000000	50.035968
1154.000000	50.052956
1155.000000	50.036810
1156.000000	50.061898
1157.000000	50.086209
1158.000000	50.070451
1159.000000	50.070448
1160.000000	50.071132
1161.000000	50.063277
1162.000000	50.067914
1163.000000	50.064362
1164.000000	50.051388
1165.000000	50.030439
1166.000000	50.036864
1167.000000	50.054540
1168.000000	50.044543
1169.000000	50.011293
1170.000000	50.011590
1171.000000	50.037595
1172.000000	50.031851
1173.000000	50.013955
1174.000000	49.982780
1175.000000	49.967018
1176.000000	49.944596
1177.000000	49.936711
1178.000000	49.920415
1179.000000	49.901501
1180.000000	49.883852
1181.000000	49.865586
1182.000000	49.848064
1183.000000	49.854002
1184.000000	49.862205
1185.000000	49.885339
1186.000000	49.886046
1187.000000	49.870193
1188.000000	49.879990
1189.000000	49.871183
1190.000000	49.884446
1191.000000	49.853742
1192.000000	49.824513
1193.000000	49.835851
1194.000000	49.853618
1195.000000	49.836389
1196.000000	49.846115
1197.000000	49.860416
1198.000000	49.853205
1199.000000	49.874751
1200.000000	49.895183
1201.000000	49.890660
1202.000000	49.850928
1203.000000	49.872663
1204.000000	49.890643
1205.000000	49.885813
1206.000000	49.889595
1207.000000	49.891585
1208.000000	49.919176
1209.000000	49.943939
1210.000000	49.975762
1211.000000	49.979155
1212.000000	50.010220
1213.000000	50.011021
1214.000000	50.036201
1215.000000	50.065915
1216.000000	50.091009
1217.000000	50.129764
1218.000000	50.146570
1219.000000	50.147024
1220.000000	50.159372
1221.000000	50.174650
1222.000000	50.200846
1223.000000	50.227665
1224.000000	50.268229
1225.000000	50.288184
1226.000000	50.309288
1227.000000	50.343827
1228.000000	50.353670
1229.000000	50.360250
1230.000000	50.401227
1231.000000	50.420717
1232.000000	50.417379
1233.000000	50.429844
1234.000000	50.416819
1235.000000	50.414710
1236.000000	50.444945
1237.000000	50.490885
1238.000000	50.499117
1239.000000	50.515849
1240.000000	50.532031
1241.000000	50.548340
1242.000000	50.573859
1243.000000	50.580294
1244.000000	50.594116
1245.000000	50.594081
1246.000000	50.621592
1247.000000	50.624614
1248.000000	50.634710
1249.000000	50.641644
1250.000000	50.637278
1251.000000	50.634770
1252.000000	50.647241
1253.000000	50.673535
1254.000000	50.679586
1255.000000	50.687798
1256.000000	50.723133
1257.000000	50.753043
1258.000000	50.773700
1259.000000	50.782523
1260.000000	50.801192
1261.000000	50.825578
1262.000000	50.849584
1263.000000	50.881434
1264.000000	50.898115
1265.000000	50.898062
1266.000000	50.922002
1267.000000	50.957037
1268.000000	50.970474
1269.000000	51.002140
1270.000000	51.032649
1271.000000	51.027876
1272.000000	51.021069
1273.000000	51.037522
1274.000000	51.050157
1275.000000	51.072707
1276.000000	51.084303
1277.000000	51.075216
1278.000000	51.068195
1279.000000	51.061871
1280.000000	51.066861
1281.000000	51.082793
1282.000000	51.105231
1283.000000	51.135034
1284.000000	51.154955
1285.000000	51.184599
1286.000000	51.204842
1287.000000	51.207609
1288.000000	51.212397
1289.000000	51.237979
1290.000000	51.252374
1291.000000	51.241355
1292.000000	51.230519
1293.000000	51.233066
1294.000000	51.242762
1295.000000	51.234496
1296.000000	51.233873
1297.000000	51.223433
1298.000000	51.215370
1299.000000	51.228962
1300.000000	51.241045
1301.000000	51.229696
1302.000000	51.214127
1303.000000	51.218000
1304.000000	51.223343
1305.000000	51.229855
1306.000000	51.247422
1307.000000	51.251022
1308.000000	51.240544
1309.000000	51.253753
1310.000000	51.263421
1311.000000	51.269406
1312.000000	51.285043
1313.000000	51.310806
1314.000000	51.332052
1315.000000	51.349168
1316.000000	51.350130
1317.000000	51.354131
1318.000000	51.366154
1319.000000	51.374611
1320.000000	51.379950
1321.000000	51.387906
1322.000000	51.395034
1323.000000	51.401249
1324.000000	51.404568
1325.000000	51.413252
1326.000000	51.447263
1327.000000	51.461918
1328.000000	51.466806
1329.000000	51.462213
1330.000000	51.481427
1331.000000	51.491585
1332.000000	51.484333
1333.000000	51.498391
1334.000000	51.508479
1335.000000	51.521043
1336.000000	51.541808
1337.000000	51.552084
1338.000000	51.547357
1339.000000	51.551961
1340.000000	51.556409
1341.000000	51.560765
1342.000000	51.586381
1343.000000	51.595880
1344.000000	51.580896
1345.000000	51.573503
1346.000000	51.573257
1347.000000	51.615691
1348.000000	51.634022
1349.000000	51.639661
1350.000000	51.631054
1351.000000	51.635124
1352.000000	51.575739
1353.000000	51.563876
1354.000000	51.614263
1355.000000	51.712422
1356.000000	51.682176
1357.000000	51.705032
1358.000000	51.693384
1359.000000	51.694521
1360.000000	51.718676
1361.000000	51.678486
1362.000000	51.493934
1363.000000	51.416330
1364.000000	51.600428
1365.000000	51.556465
1366.000000	51.542786
1367.000000	51.686688
1368.000000	51.773742
1369.000000	51.727163
1370.000000	51.707751
1371.000000	51.705114
1372.000000	51.766701
1373.000000	51.801000
1374.000000	51.776423
1375.000000	51.798321
1376.000000	51.788065
1377.000000	51.764307
1378.000000	51.871990
1379.000000	51.870884
1380.000000	52.119733
1381.000000	52.156114
1382.000000	52.354414
1383.000000	52.388779
1384.000000	52.357033
1385.000000	52.345839
1386.000000	52.315794
1387.000000	52.391894
1388.000000	52.291808
1389.000000	52.187474
1390.000000	52.055275
1391.000000	52.071608
1392.000000	52.005095
1393.000000	51.922014
1394.000000	51.844580
1395.000000	51.832557
1396.000000	51.822402
1397.000000	51.934701
1398.000000	51.942568
1399.000000	51.779207
1400.000000	51.922247
1401.000000	51.951079
1402.000000	51.751710
1403.000000	51.595572
1404.000000	51.517124
1405.000000	51.442939
1406.000000	51.408988
1407.000000	51.338213
1408.000000	51.257716
1409.000000	51.281482
1410.000000	51.222005
1411.000000	51.179013
1412.000000	51.125689
1413.000000	50.976132
1414.000000	50.938016
1415.000000	50.611079
1416.000000	50.507642
1417.000000	50.246327
1418.000000	50.126012
1419.000000	50.097562
1420.000000	50.059703
1421.000000	50.022335
1422.000000	49.928006
1423.000000	49.945825
1424.000000	49.905140
1425.000000	49.883087
1426.000000	49.827255
1427.000000	49.795108
1428.000000	49.785346
1429.000000	49.750187
1430.000000	49.651979
1431.000000	49.617813
1432.000000	49.613364
1433.000000	49.587129
1434.000000	49.489719
1435.000000	49.292198
1436.000000	49.172240
1437.000000	49.133305
1438.000000	49.112122
1439.000000	49.145968
1440.000000	49.151588
1441.000000	49.105188
1442.000000	49.030026
1443.000000	48.986937
1444.000000	48.876976
1445.000000	48.840784
1446.000000	48.765975
1447.000000	48.720542
1448.000000	48.670644
1449.000000	48.617414
1450.000000	48.610237
1451.000000	48.577142
1452.000000	48.507033
1453.000000	48.483978
1454.000000	48.459982
1455.000000	48.425767
1456.000000	48.377946
1457.000000	48.333934
1458.000000	48.337593
1459.000000	48.329394
1460.000000	48.279647
1461.000000	48.242881
1462.000000	48.213999
1463.000000	48.189023
1464.000000	48.187098
1465.000000	48.168158
1466.000000	48.118559
1467.000000	48.070432
1468.000000	48.058545
1469.000000	48.039751
1470.000000	48.035717
1471.000000	48.018930
1472.000000	48.024467
1473.000000	47.984255
1474.000000	47.938985
1475.000000	47.903710
1476.000000	47.868483
1477.000000	47.833149
1478.000000	47.819078
1479.000000	47.818054
1480.000000	47.793050
1481.000000	47.793004
1482.000000	47.789906
1483.000000	47.780498
1484.000000	47.772895
1485.000000	47.761204
1486.000000	47.765775
1487.000000	47.752098
1488.000000	47.716453
1489.000000	47.681645
1490.000000	47.665772
1491.000000	47.667774
1492.000000	47.668802
1493.000000	47.636126
1494.000000	47.624380
1495.000000	47.617704
1496.000000	47.610380
1497.000000	47.594026
1498.000000	47.598477
1499.000000	47.588635
1500.000000	47.574452
1501.000000	47.594645
1502.000000	47.615898
1503.000000	47.595102
1504.000000	47.576438
1505.000000	47.565967
1506.000000	47.583324
1507.000000	47.588639
1508.000000	47.609751
1509.000000	47.635471
1510.000000	47.659321
1511.000000	47.681997
1512.000000	47.702824
1513.000000	47.725860
1514.000000	47.752287
1515.000000	47.760294
1516.000000	47.787722
1517.000000	47.814385
1518.000000	47.839204
1519.000000	47.857907
1520.000000	47.863110
1521.000000	47.871468
1522.000000	47.891597
1523.000000	47.930723
1524.000000	47.966459
1525.000000	47.997455
1526.000000	48.023740
1527.000000	48.048577
1528.000000	48.087318
1529.000000	48.124653
1530.000000	48.156214
1531.000000	48.194399
1532.000000	48.240825
1533.000000	48.289965
1534.000000	48.337317
1535.000000	48.386851
1536.000000	48.420230
1537.000000	48.445535
1538.000000	48.505746
1539.000000	48.554886
1540.000000	48.585886
1541.000000	48.612810
1542.000000	48.639634
1543.000000	48.671638
1544.000000	48.691585
1545.000000	48.713155
1546.000000	48.747784
1547.000000	48.794789
1548.000000	48.833985
1549.000000	48.868259
1550.000000	48.896046
1551.000000	48.933754
1552.000000	48.964501
1553.000000	48.987869
1554.000000	49.020167
1555.000000	49.061141
1556.000000	49.099728
1557.000000	49.135984
1558.000000	49.174890
1559.000000	49.211098
1560.000000	49.240388
1561.000000	49.268513
1562.000000	49.312036
1563.000000	49.345108
1564.000000	49.362052
1565.000000	49.373134
1566.000000	49.390515
1567.000000	49.419139
1568.000000	49.448982
1569.000000	49.478096
1570.000000	49.492636
1571.000000	49.506005
1572.000000	49.536824
1573.000000	49.544566
1574.000000	49.558063
1575.000000	49.586073
1576.000000	49.590042
1577.000000	49.594912
1578.000000	49.604578
1579.000000	49.633884
1580.000000	49.662462
1581.000000	49.678500
1582.000000	49.692131
1583.000000	49.707279
1584.000000	49.710808
1585.000000	49.733643
1586.000000	49.751540
1587.000000	49.758040
1588.000000	49.789014
1589.000000	49.817908
1590.000000	49.826668
1591.000000	49.859645
1592.000000	49.876752
1593.000000	49.882581
1594.000000	49.893510
1595.000000	49.909643
1596.000000	49.923652
1597.000000	49.932789
1598.000000	49.956993
1599.000000	49.980331
1600.000000	50.008979
1601.000000	50.044078
1602.000000	50.058071
1603.000000	50.067854
1604.000000	50.072500
1605.000000	50.089433
1606.000000	50.111172
1607.000000	50.123766
1608.000000	50.145427
1609.000000	50.159011
1610.000000	50.177647
1611.000000	50.241464
1612.000000	50.302065
1613.000000	50.351698
1614.000000	50.394580
1615.000000	50.406756
1616.000000	50.426520
1617.000000	50.458600
1618.000000	50.477133
1619.000000	50.511135
1620.000000	50.555166
1621.000000	50.587232
1622.000000	50.620429
1623.000000	50.638643
1624.000000	50.653455
1625.000000	50.674293
1626.000000	50.680626
1627.000000	50.696914
1628.000000	50.737875
1629.000000	50.764808
1630.000000	50.783361
1631.000000	50.826016
1632.000000	50.867106
1633.000000	50.899623
1634.000000	50.920849
1635.000000	50.949467
1636.000000	50.953840
1637.000000	50.981383
1638.000000	51.004821
1639.000000	51.040112
1640.000000	51.053615
1641.000000	51.049051
1642.000000	51.088717
1643.000000	51.132655
1644.000000	51.177495
1645.000000	51.195804
1646.000000	51.204674
1647.000000	51.199467
1648.000000	51.213397
1649.000000	51.233963
1650.000000	51.261368
1651.000000	51.287777
1652.000000	51.296530
1653.000000	51.329461
1654.000000	51.334176
1655.000000	51.331693
1656.000000	51.357693
1657.000000	51.383523
1658.000000	51.403022
1659.000000	51.419544
1660.000000	51.440668
1661.000000	51.456559
1662.000000	51.479841
1663.000000	51.485238
1664.000000	51.494509
1665.000000	51.520816
1666.000000	51.490189
1667.000000	51.504589
1668.000000	51.496810
1669.000000	51.521336
1670.000000	51.532822
1671.000000	51.523854
1672.000000	51.521839
1673.000000	51.514493
1674.000000	51.520257
1675.000000	51.531763
1676.000000	51.553836
1677.000000	51.550170
1678.000000	51.532028
1679.000000	51.524138
1680.000000	51.516484
1681.000000	51.494812
1682.000000	51.484189
1683.000000	51.452940
1684.000000	51.405619
1685.000000	51.381720
1686.000000	51.340780
1687.000000	51.318818
1688.000000	51.290910
1689.000000	51.252459
1690.000000	51.217148
1691.000000	51.162165
1692.000000	51.123065
1693.000000	51.085148
1694.000000	51.042102
1695.000000	51.015112
1696.000000	51.004370
1697.000000	50.969955
1698.000000	50.919341
1699.000000	50.881695
1700.000000	50.841693
1701.000000	50.836524
1702.000000	50.790191
1703.000000	50.756666
1704.000000	50.725933
1705.000000	50.687551
1706.000000	50.679390
1707.000000	50.651600
1708.000000	50.633805
1709.000000	50.606710
1710.000000	50.580180
1711.000000	50.573127
1712.000000	50.539399
1713.000000	50.504305
1714.000000	50.457274
1715.000000	50.425217
1716.000000	50.392700
1717.000000	50.366543
1718.000000	50.345927
1719.000000	50.319640
1720.000000	50.285136
1721.000000	50.266805
1722.000000	50.224072
1723.000000	50.190334
1724.000000	50.185632
1725.000000	50.173816
1726.000000	50.149797
1727.000000	50.126890
1728.000000	50.096007
1729.000000	50.079309
1730.000000	50.059394
1731.000000	50.022873
1732.000000	50.032072
1733.000000	50.055836
1734.000000	50.052260
1735.000000	50.030384
1736.000000	50.028537
1737.000000	50.032600
1738.000000	50.031954
1739.000000	50.021408
1740.000000	50.018117
1741.000000	50.015386
1742.000000	50.027738
1743.000000	50.042374
1744.000000	50.046546
1745.000000	50.058103
1746.000000	50.044973
1747.000000	50.040144
1748.000000	50.051360
1749.000000	50.083382
1750.000000	50.123395
1751.000000	50.154133
1752.000000	50.179518
1753.000000	50.208525
1754.000000	50.231150
1755.000000	50.258966
1756.000000	50.299280
1757.000000	50.350352
1758.000000	50.384589
1759.000000	50.408711
1760.000000	50.420757
1761.000000	50.465298
1762.000000	50.498571
1763.000000	50.547865
1764.000000	50.589914
1765.000000	50.622967
1766.000000	50.652418
1767.000000	50.656687
1768.000000	50.668957
1769.000000	50.700458
1770.000000	50.733982
1771.000000	50.761662
1772.000000	50.779386
1773.000000	50.801428
1774.000000	50.824464
1775.000000	50.846760
1776.000000	50.873460
1777.000000	50.886214
1778.000000	50.894622
1779.000000	50.916335
1780.000000	50.933852
1781.000000	50.948762
1782.000000	50.978157
1783.000000	51.005459
1784.000000	51.008819
1785.000000	51.003981
1786.000000	51.023852
1787.000000	51.054435
1788.000000	51.080792
1789.000000	51.123971
1790.000000	51.153271
1791.000000	51.168221
1792.000000	51.201559
1793.000000	51.241761
1794.000000	51.283904
1795.000000	51.324610
1796.000000	51.356968
1797.000000	51.398681
1798.000000	51.415807
1799.000000	51.424238
1800.000000	51.443028
1801.000000	51.479862
1802.000000	51.514870
1803.000000	51.532617
1804.000000	51.553938
1805.000000	51.598575
1806.000000	51.636575
1807.000000	51.650713
1808.000000	51.659024
1809.000000	51.669793
1810.000000	51.714344
1811.000000	51.776709
1812.000000	51.833110
1813.000000	51.871634
1814.000000	51.872970
1815.000000	51.869576
1816.000000	51.912607
1817.000000	51.983168
1818.000000	52.019321
1819.000000	52.043767
1820.000000	52.050928
1821.000000	52.069200
1822.000000	52.084809
1823.000000	52.118414
1824.000000	52.142305
1825.000000	52.185765
1826.000000	52.204485
1827.000000	52.215059
1828.000000	52.232603
1829.000000	52.262038
1830.000000	52.321225
1831.000000	52.351047
1832.000000	52.356169
1833.000000	52.386669
1834.000000	52.466685
1835.000000	52.534302
1836.000000	52.516005
1837.000000	52.520782
1838.000000	52.540168
1839.000000	52.638727
1840.000000	52.671001
1841.000000	52.747760
1842.000000	52.794941
1843.000000	52.839704
1844.000000	52.871842
1845.000000	52.859421
1846.000000	52.877361
1847.000000	52.918267
1848.000000	52.917528
1849.000000	52.941066
1850.000000	52.974184
1851.000000	52.992425
1852.000000	52.989517
1853.000000	53.086673
1854.000000	53.150155
1855.000000	53.178339
1856.000000	53.082779
1857.000000	53.012937
1858.000000	52.957528
1859.000000	52.929641
1860.000000	52.904612
1861.000000	52.905246
1862.000000	52.909586
1863.000000	52.931323
1864.000000	52.939052
1865.000000	52.899539
1866.000000	52.871644
1867.000000	52.862859
1868.000000	52.827229
1869.000000	52.801911
1870.000000	52.963542
1871.000000	53.034836
1872.000000	53.080760
1873.000000	53.079351
1874.000000	52.981703
1875.000000	52.915089
1876.000000	52.896978
1877.000000	52.852118
1878.000000	52.792845
1879.000000	52.745585
1880.000000	52.733201
1881.000000	52.650804
1882.000000	52.559128
1883.000000	52.547489
1884.000000	52.483773
1885.000000	52.419623
1886.000000	52.368101
1887.000000	52.275931
1888.000000	52.093948
1889.000000	51.981527
1890.000000	51.874632
1891.000000	51.909050
1892.000000	51.855695
1893.000000	51.821360
1894.000000	51.738131
1895.000000	51.616938
1896.000000	51.482487
1897.000000	51.352948
1898.000000	51.171661
1899.000000	51.015964
1900.000000	50.850560
1901.000000	50.702079
1902.000000	50.656120
1903.000000	50.490498
1904.000000	50.254146
1905.000000	49.819790
1906.000000	49.627208
1907.000000	49.358639
1908.000000	49.146498
1909.000000	48.920684
1910.000000	48.687006
1911.000000	48.382347
1912.000000	48.112234
1913.000000	47.914984
1914.000000	47.684302
1915.000000	47.438046
1916.000000	47.203823
1917.000000	46.992563
1918.000000	46.724489
1919.000000	46.547196
1920.000000	46.383623
1921.000000	46.117843
1922.000000	45.883184
1923.000000	45.670107
1924.000000	45.385559
1925.000000	45.178488
1926.000000	44.945251
1927.000000	44.721464
1928.000000	44.506372
1929.000000	44.295610
1930.000000	44.136362
1931.000000	43.956944
1932.000000	43.757880
1933.000000	43.597848
1934.000000	43.391838
1935.000000	43.235463
1936.000000	43.085923
1937.000000	42.836533
1938.000000	42.710699
1939.000000	42.591485
1940.000000	42.508224
1941.000000	42.340321
1942.000000	42.275131
1943.000000	42.170668
1944.000000	42.118744
1945.000000	42.058033
1946.000000	42.001877
1947.000000	41.995077
1948.000000	41.943886
1949.000000	41.904223
1950.000000	41.864875
1951.000000	41.824583
1952.000000	41.792862
1953.000000	41.758088
1954.000000	41.695146
1955.000000	41.632178
1956.000000	41.640888
1957.000000	41.660981
1958.000000	41.688611
1959.000000	41.756186
1960.000000	41.816023
1961.000000	41.843369
1962.000000	41.924069
1963.000000	41.952908
1964.000000	41.997969
1965.000000	42.032041
1966.000000	42.086031
1967.000000	42.147527
1968.000000	42.191882
1969.000000	42.277478
1970.000000	42.351621
1971.000000	42.412268
1972.000000	42.463940
1973.000000	42.553460
1974.000000	42.647503
1975.000000	42.745176
1976.000000	42.836246
1977.000000	42.890056
1978.000000	42.988399
1979.000000	43.056278
1980.000000	43.166554
1981.000000	43.254753
1982.000000	43.317014
1983.000000	43.400763
1984.000000	43.480826
1985.000000	43.580437
1986.000000	43.698497
1987.000000	43.781976
1988.000000	43.902984
1989.000000	44.007517
1990.000000	44.110774
1991.000000	44.223337
1992.000000	44.311539
1993.000000	44.391637
1994.000000	44.491049
1995.000000	44.553659
1996.000000	44.620723
1997.000000	44.709215
1998.000000	44.785410
1999.000000	44.869528
2000.000000	44.944661
