PE UV       SUBTECH     SPECTRUM    ASCII       PEDS        4.00        
   -1
PLATY.001-TX3.ASC
23/11/30
15:38:45.00
23/11/30
15:38:45.00
Vinicio Soto Monge
PLATY 1
250,000000
1
Lambda 1050
1050L1511233
PerkinElmer UV WinLab 6.3.2.0749 / 2.02.05 Lambda 900 UV/VIS/NIR, Aug  7 2015 09:38:08

0
0
3350/servo 860,8/2
0
0
UV/VIS
1
1
1
DoubleDePol,CommonBeamDepol,RBeamAtt,SBeamAtt,60mm sphere, WB InGaAs Detector
0
0
0
0
Program
Program
3350/servo 860,8/2
3350/0,4 860,8/0,4
3350/0,4 860,8/0,4
0
20.00
 
 
 
0
 
860,8
319,2
860,8
Front
100
on
S:100 R:100
0
0
0
0
 
0
 
 
 
0
 
 
0
0
0
0
0
 
 
 
 
0
0


0
0
#HDR
-1
-1
#GR
nm
%A
1.0
0.0
2200,000000
-1,000000
1951
8
35,125412
0,217810
#DATA
284.000000	93.549436
285.000000	93.567172
286.000000	93.583065
287.000000	93.596017
288.000000	93.608501
289.000000	93.620149
290.000000	93.628024
291.000000	93.636969
292.000000	93.642791
293.000000	93.647719
294.000000	93.651054
295.000000	93.652657
296.000000	93.652109
297.000000	93.649186
298.000000	93.645857
299.000000	93.642074
300.000000	93.635325
301.000000	93.630478
302.000000	93.622880
303.000000	93.615420
304.000000	93.608211
305.000000	93.601411
306.000000	93.591650
307.000000	93.582089
308.000000	93.574249
309.000000	93.565002
310.000000	93.555213
311.000000	93.544371
312.000000	93.534323
313.000000	93.527484
314.000000	93.520360
315.000000	93.513093
316.000000	93.506423
317.000000	93.501491
318.000000	93.492135
319.000000	93.486372
320.000000	93.482134
321.000000	93.477400
322.000000	93.474251
323.000000	93.474455
324.000000	93.473599
325.000000	93.472745
326.000000	93.472598
327.000000	93.474033
328.000000	93.478566
329.000000	93.484336
330.000000	93.490264
331.000000	93.494906
332.000000	93.503304
333.000000	93.512371
334.000000	93.520073
335.000000	93.528283
336.000000	93.536038
337.000000	93.545039
338.000000	93.553975
339.000000	93.561433
340.000000	93.571022
341.000000	93.579760
342.000000	93.589521
343.000000	93.596883
344.000000	93.604665
345.000000	93.613472
346.000000	93.621030
347.000000	93.628588
348.000000	93.637408
349.000000	93.644684
350.000000	93.651092
351.000000	93.656854
352.000000	93.660754
353.000000	93.668063
354.000000	93.674924
355.000000	93.679096
356.000000	93.683656
357.000000	93.688587
358.000000	93.690248
359.000000	93.693485
360.000000	93.698542
361.000000	93.702839
362.000000	93.706995
363.000000	93.708512
364.000000	93.710343
365.000000	93.713085
366.000000	93.717261
367.000000	93.717658
368.000000	93.718444
369.000000	93.719486
370.000000	93.722572
371.000000	93.724521
372.000000	93.727103
373.000000	93.727525
374.000000	93.732433
375.000000	93.732898
376.000000	93.734321
377.000000	93.735577
378.000000	93.738236
379.000000	93.739836
380.000000	93.741843
381.000000	93.743932
382.000000	93.744844
383.000000	93.743843
384.000000	93.744029
385.000000	93.744740
386.000000	93.744253
387.000000	93.744969
388.000000	93.746275
389.000000	93.745006
390.000000	93.744899
391.000000	93.745385
392.000000	93.744501
393.000000	93.742891
394.000000	93.741081
395.000000	93.738984
396.000000	93.736575
397.000000	93.734799
398.000000	93.732477
399.000000	93.728938
400.000000	93.725024
401.000000	93.721334
402.000000	93.718865
403.000000	93.715691
404.000000	93.712194
405.000000	93.707517
406.000000	93.703046
407.000000	93.698214
408.000000	93.693984
409.000000	93.686463
410.000000	93.681039
411.000000	93.675324
412.000000	93.668335
413.000000	93.661536
414.000000	93.654226
415.000000	93.646194
416.000000	93.638130
417.000000	93.629621
418.000000	93.620537
419.000000	93.611102
420.000000	93.601059
421.000000	93.590572
422.000000	93.579342
423.000000	93.567603
424.000000	93.555201
425.000000	93.542125
426.000000	93.528750
427.000000	93.514896
428.000000	93.500717
429.000000	93.485993
430.000000	93.470727
431.000000	93.455239
432.000000	93.439031
433.000000	93.422196
434.000000	93.404984
435.000000	93.387258
436.000000	93.368965
437.000000	93.349865
438.000000	93.330221
439.000000	93.310327
440.000000	93.289558
441.000000	93.268165
442.000000	93.246371
443.000000	93.224078
444.000000	93.201489
445.000000	93.178245
446.000000	93.154613
447.000000	93.130685
448.000000	93.106264
449.000000	93.081626
450.000000	93.056717
451.000000	93.031198
452.000000	93.005256
453.000000	92.978844
454.000000	92.951877
455.000000	92.924481
456.000000	92.896928
457.000000	92.868972
458.000000	92.840619
459.000000	92.812083
460.000000	92.783047
461.000000	92.753425
462.000000	92.723223
463.000000	92.692542
464.000000	92.661078
465.000000	92.629372
466.000000	92.597129
467.000000	92.564143
468.000000	92.530552
469.000000	92.496309
470.000000	92.461582
471.000000	92.426002
472.000000	92.389629
473.000000	92.352426
474.000000	92.314247
475.000000	92.275206
476.000000	92.235310
477.000000	92.194242
478.000000	92.151805
479.000000	92.108479
480.000000	92.064312
481.000000	92.019004
482.000000	91.972740
483.000000	91.925184
484.000000	91.876129
485.000000	91.825643
486.000000	91.773660
487.000000	91.719942
488.000000	91.664769
489.000000	91.608177
490.000000	91.549616
491.000000	91.488827
492.000000	91.425925
493.000000	91.360970
494.000000	91.293483
495.000000	91.223292
496.000000	91.150676
497.000000	91.075460
498.000000	90.997072
499.000000	90.915808
500.000000	90.830997
501.000000	90.742457
502.000000	90.650294
503.000000	90.554476
504.000000	90.454543
505.000000	90.350317
506.000000	90.241889
507.000000	90.128939
508.000000	90.011114
509.000000	89.888355
510.000000	89.760719
511.000000	89.628243
512.000000	89.490684
513.000000	89.348063
514.000000	89.199937
515.000000	89.046520
516.000000	88.888288
517.000000	88.724611
518.000000	88.556180
519.000000	88.383428
520.000000	88.206128
521.000000	88.024064
522.000000	87.837994
523.000000	87.647319
524.000000	87.452495
525.000000	87.253599
526.000000	87.051095
527.000000	86.845174
528.000000	86.635906
529.000000	86.423991
530.000000	86.209416
531.000000	85.991850
532.000000	85.772011
533.000000	85.550498
534.000000	85.327362
535.000000	85.102691
536.000000	84.877138
537.000000	84.651156
538.000000	84.424671
539.000000	84.197722
540.000000	83.971165
541.000000	83.744569
542.000000	83.518701
543.000000	83.293972
544.000000	83.069851
545.000000	82.847156
546.000000	82.625152
547.000000	82.404680
548.000000	82.185964
549.000000	81.969235
550.000000	81.754132
551.000000	81.540397
552.000000	81.329299
553.000000	81.119709
554.000000	80.911233
555.000000	80.704864
556.000000	80.501051
557.000000	80.299308
558.000000	80.099593
559.000000	79.902037
560.000000	79.706720
561.000000	79.513761
562.000000	79.323020
563.000000	79.134363
564.000000	78.948247
565.000000	78.764814
566.000000	78.584166
567.000000	78.405952
568.000000	78.230571
569.000000	78.058842
570.000000	77.890498
571.000000	77.726066
572.000000	77.564824
573.000000	77.406960
574.000000	77.253730
575.000000	77.105121
576.000000	76.961906
577.000000	76.823220
578.000000	76.689304
579.000000	76.561429
580.000000	76.438769
581.000000	76.322387
582.000000	76.211998
583.000000	76.108419
584.000000	76.010532
585.000000	75.920007
586.000000	75.835773
587.000000	75.758177
588.000000	75.687901
589.000000	75.625140
590.000000	75.569682
591.000000	75.520915
592.000000	75.479203
593.000000	75.444925
594.000000	75.417305
595.000000	75.396924
596.000000	75.383814
597.000000	75.377504
598.000000	75.377589
599.000000	75.383930
600.000000	75.397063
601.000000	75.415795
602.000000	75.440539
603.000000	75.470594
604.000000	75.504647
605.000000	75.544075
606.000000	75.587427
607.000000	75.634732
608.000000	75.686060
609.000000	75.741137
610.000000	75.798567
611.000000	75.857902
612.000000	75.920050
613.000000	75.984287
614.000000	76.050283
615.000000	76.117327
616.000000	76.185489
617.000000	76.254765
618.000000	76.323751
619.000000	76.394118
620.000000	76.463541
621.000000	76.533991
622.000000	76.604072
623.000000	76.674090
624.000000	76.744421
625.000000	76.814562
626.000000	76.884554
627.000000	76.955036
628.000000	77.026099
629.000000	77.097630
630.000000	77.169821
631.000000	77.242026
632.000000	77.315256
633.000000	77.389264
634.000000	77.464052
635.000000	77.539419
636.000000	77.615712
637.000000	77.692639
638.000000	77.770633
639.000000	77.850397
640.000000	77.930933
641.000000	78.012848
642.000000	78.096428
643.000000	78.181423
644.000000	78.267075
645.000000	78.354404
646.000000	78.443104
647.000000	78.532030
648.000000	78.622048
649.000000	78.712496
650.000000	78.803229
651.000000	78.893635
652.000000	78.983124
653.000000	79.071931
654.000000	79.158449
655.000000	79.243817
656.000000	79.326652
657.000000	79.405727
658.000000	79.480722
659.000000	79.551036
660.000000	79.616181
661.000000	79.676025
662.000000	79.729209
663.000000	79.774644
664.000000	79.811927
665.000000	79.839857
666.000000	79.858421
667.000000	79.865964
668.000000	79.862759
669.000000	79.846459
670.000000	79.815881
671.000000	79.771741
672.000000	79.711754
673.000000	79.634637
674.000000	79.538766
675.000000	79.423638
676.000000	79.287377
677.000000	79.128929
678.000000	78.947074
679.000000	78.740764
680.000000	78.506730
681.000000	78.244121
682.000000	77.951995
683.000000	77.628285
684.000000	77.271788
685.000000	76.881918
686.000000	76.457258
687.000000	75.996316
688.000000	75.499159
689.000000	74.964497
690.000000	74.391696
691.000000	73.778795
692.000000	73.127777
693.000000	72.438504
694.000000	71.710235
695.000000	70.944653
696.000000	70.143147
697.000000	69.307204
698.000000	68.436813
699.000000	67.533252
700.000000	66.597960
701.000000	65.632432
702.000000	64.639296
703.000000	63.620368
704.000000	62.579572
705.000000	61.517924
706.000000	60.435310
707.000000	59.337903
708.000000	58.227243
709.000000	57.105314
710.000000	55.974321
711.000000	54.835795
712.000000	53.693726
713.000000	52.551217
714.000000	51.408132
715.000000	50.271096
716.000000	49.142342
717.000000	48.023793
718.000000	46.917323
719.000000	45.826917
720.000000	44.754176
721.000000	43.699959
722.000000	42.667662
723.000000	41.658388
724.000000	40.675973
725.000000	39.720922
726.000000	38.794506
727.000000	37.896500
728.000000	37.027794
729.000000	36.191910
730.000000	35.386491
731.000000	34.612060
732.000000	33.866775
733.000000	33.152428
734.000000	32.467677
735.000000	31.812487
736.000000	31.186091
737.000000	30.587624
738.000000	30.016879
739.000000	29.471489
740.000000	28.949101
741.000000	28.450133
742.000000	27.973673
743.000000	27.519002
744.000000	27.083173
745.000000	26.664919
746.000000	26.266133
747.000000	25.885221
748.000000	25.519152
749.000000	25.169710
750.000000	24.832953
751.000000	24.504935
752.000000	24.186920
753.000000	23.878343
754.000000	23.579902
755.000000	23.293399
756.000000	23.015501
757.000000	22.746694
758.000000	22.487413
759.000000	22.234269
760.000000	21.986580
761.000000	21.743648
762.000000	21.505506
763.000000	21.274056
764.000000	21.049389
765.000000	20.829805
766.000000	20.610698
767.000000	20.396016
768.000000	20.187763
769.000000	19.984405
770.000000	19.784212
771.000000	19.585969
772.000000	19.387648
773.000000	19.191750
774.000000	18.998891
775.000000	18.807762
776.000000	18.622755
777.000000	18.438402
778.000000	18.254297
779.000000	18.071844
780.000000	17.893975
781.000000	17.717876
782.000000	17.542933
783.000000	17.369495
784.000000	17.197317
785.000000	17.027424
786.000000	16.860437
787.000000	16.695549
788.000000	16.536167
789.000000	16.376694
790.000000	16.215918
791.000000	16.053948
792.000000	15.896165
793.000000	15.735455
794.000000	15.577840
795.000000	15.419542
796.000000	15.265357
797.000000	15.114181
798.000000	14.963685
799.000000	14.811304
800.000000	14.656944
801.000000	14.506843
802.000000	14.356712
803.000000	14.209252
804.000000	14.062128
805.000000	13.918012
806.000000	13.776643
807.000000	13.634788
808.000000	13.490840
809.000000	13.346134
810.000000	13.208283
811.000000	13.068281
812.000000	12.932798
813.000000	12.801544
814.000000	12.669150
815.000000	12.539944
816.000000	12.412899
817.000000	12.280907
818.000000	12.152632
819.000000	12.026798
820.000000	11.898093
821.000000	11.773409
822.000000	11.648499
823.000000	11.525453
824.000000	11.407765
825.000000	11.286037
826.000000	11.169077
827.000000	11.045121
828.000000	10.926749
829.000000	10.805927
830.000000	10.693489
831.000000	10.584127
832.000000	10.465663
833.000000	10.355199
834.000000	10.248855
835.000000	10.142093
836.000000	10.039407
837.000000	9.940936
838.000000	9.830214
839.000000	9.728590
840.000000	9.628074
841.000000	9.525047
842.000000	9.428691
843.000000	9.337960
844.000000	9.242618
845.000000	9.139775
846.000000	9.051547
847.000000	8.954317
848.000000	8.856605
849.000000	8.761107
850.000000	8.672790
851.000000	8.573303
852.000000	8.482898
853.000000	8.383936
854.000000	8.295742
855.000000	8.190923
856.000000	8.095356
857.000000	8.036198
858.000000	8.044201
859.000000	7.933842
860.000000	7.824781
861.000000	7.725729
862.000000	7.675507
863.000000	7.601306
864.000000	7.515706
865.000000	7.414743
866.000000	7.341712
867.000000	7.273523
868.000000	7.189429
869.000000	7.112199
870.000000	7.034345
871.000000	6.934827
872.000000	6.863771
873.000000	6.791275
874.000000	6.691910
875.000000	6.603847
876.000000	6.539183
877.000000	6.468843
878.000000	6.359664
879.000000	6.264289
880.000000	6.182524
881.000000	6.101413
882.000000	5.989718
883.000000	5.886479
884.000000	5.790589
885.000000	5.720630
886.000000	5.631004
887.000000	5.574783
888.000000	5.503670
889.000000	5.404460
890.000000	5.333384
891.000000	5.265221
892.000000	5.171809
893.000000	5.005569
894.000000	4.944581
895.000000	4.876936
896.000000	4.824278
897.000000	4.709456
898.000000	4.603220
899.000000	4.545587
900.000000	4.513795
901.000000	4.447151
902.000000	4.391606
903.000000	4.324488
904.000000	4.235912
905.000000	4.163574
906.000000	4.119334
907.000000	4.029070
908.000000	3.952065
909.000000	3.904583
910.000000	3.856883
911.000000	3.807016
912.000000	3.779871
913.000000	3.789715
914.000000	3.765489
915.000000	3.740927
916.000000	3.691067
917.000000	3.660217
918.000000	3.651360
919.000000	3.613847
920.000000	3.560637
921.000000	3.548296
922.000000	3.494552
923.000000	3.436064
924.000000	3.402117
925.000000	3.359616
926.000000	3.315302
927.000000	3.282465
928.000000	3.237748
929.000000	3.221681
930.000000	3.225465
931.000000	3.177922
932.000000	3.157890
933.000000	3.150253
934.000000	3.088073
935.000000	3.039332
936.000000	2.998163
937.000000	2.962395
938.000000	2.943364
939.000000	2.934389
940.000000	2.878402
941.000000	2.840152
942.000000	2.788449
943.000000	2.761200
944.000000	2.748406
945.000000	2.726091
946.000000	2.690175
947.000000	2.578458
948.000000	2.504701
949.000000	2.502016
950.000000	2.479131
951.000000	2.458518
952.000000	2.455956
953.000000	2.401916
954.000000	2.379510
955.000000	2.348910
956.000000	2.294160
957.000000	2.250085
958.000000	2.212720
959.000000	2.202320
960.000000	2.222190
961.000000	2.242206
962.000000	2.218750
963.000000	2.209528
964.000000	2.174774
965.000000	2.135682
966.000000	2.152700
967.000000	2.135578
968.000000	2.109057
969.000000	2.136334
970.000000	2.136251
971.000000	2.099987
972.000000	2.042119
973.000000	2.001501
974.000000	1.960538
975.000000	1.974940
976.000000	1.971861
977.000000	2.022242
978.000000	2.035649
979.000000	2.020799
980.000000	1.999263
981.000000	1.972513
982.000000	2.021180
983.000000	2.031012
984.000000	1.970253
985.000000	1.919981
986.000000	1.891362
987.000000	1.883534
988.000000	1.896340
989.000000	1.889300
990.000000	1.874155
991.000000	1.870824
992.000000	1.848692
993.000000	1.845903
994.000000	1.817881
995.000000	1.779468
996.000000	1.752634
997.000000	1.739069
998.000000	1.688517
999.000000	1.647757
1000.000000	1.624640
1001.000000	1.576805
1002.000000	1.574577
1003.000000	1.573044
1004.000000	1.550285
1005.000000	1.522858
1006.000000	1.517614
1007.000000	1.522681
1008.000000	1.496421
1009.000000	1.499208
1010.000000	1.487743
1011.000000	1.475163
1012.000000	1.440249
1013.000000	1.407823
1014.000000	1.397366
1015.000000	1.384641
1016.000000	1.373662
1017.000000	1.332659
1018.000000	1.281565
1019.000000	1.291264
1020.000000	1.293990
1021.000000	1.240470
1022.000000	1.200395
1023.000000	1.184239
1024.000000	1.172318
1025.000000	1.165002
1026.000000	1.176906
1027.000000	1.162830
1028.000000	1.155383
1029.000000	1.156762
1030.000000	1.131224
1031.000000	1.087035
1032.000000	1.077265
1033.000000	1.105659
1034.000000	1.122145
1035.000000	1.086364
1036.000000	1.058478
1037.000000	1.042329
1038.000000	1.027991
1039.000000	1.007355
1040.000000	0.978261
1041.000000	0.962174
1042.000000	0.937080
1043.000000	0.896348
1044.000000	0.860928
1045.000000	0.858596
1046.000000	0.854488
1047.000000	0.825484
1048.000000	0.796951
1049.000000	0.780958
1050.000000	0.769536
1051.000000	0.751882
1052.000000	0.760938
1053.000000	0.782817
1054.000000	0.783766
1055.000000	0.771912
1056.000000	0.810811
1057.000000	0.819836
1058.000000	0.803397
1059.000000	0.787324
1060.000000	0.772841
1061.000000	0.735280
1062.000000	0.755394
1063.000000	0.771679
1064.000000	0.773116
1065.000000	0.766546
1066.000000	0.756166
1067.000000	0.725539
1068.000000	0.716522
1069.000000	0.706063
1070.000000	0.691935
1071.000000	0.685258
1072.000000	0.647426
1073.000000	0.672657
1074.000000	0.673439
1075.000000	0.692675
1076.000000	0.697863
1077.000000	0.740463
1078.000000	0.828018
1079.000000	0.858073
1080.000000	0.828933
1081.000000	0.789111
1082.000000	0.788546
1083.000000	0.755047
1084.000000	0.726732
1085.000000	0.739744
1086.000000	0.713517
1087.000000	0.685875
1088.000000	0.657331
1089.000000	0.644396
1090.000000	0.614027
1091.000000	0.572549
1092.000000	0.572629
1093.000000	0.572129
1094.000000	0.560036
1095.000000	0.523077
1096.000000	0.546865
1097.000000	0.549840
1098.000000	0.536278
1099.000000	0.496451
1100.000000	0.495200
1101.000000	0.506041
1102.000000	0.487455
1103.000000	0.461018
1104.000000	0.456432
1105.000000	0.482648
1106.000000	0.475219
1107.000000	0.484903
1108.000000	0.443545
1109.000000	0.423131
1110.000000	0.381724
1111.000000	0.372233
1112.000000	0.339809
1113.000000	0.273420
1114.000000	0.258915
1115.000000	0.288981
1116.000000	0.345827
1117.000000	0.334391
1118.000000	0.403090
1119.000000	0.427554
1120.000000	0.387889
1121.000000	0.408771
1122.000000	0.388368
1123.000000	0.363808
1124.000000	0.336090
1125.000000	0.374196
1126.000000	0.409302
1127.000000	0.363792
1128.000000	0.320240
1129.000000	0.313098
1130.000000	0.371525
1131.000000	0.329625
1132.000000	0.345419
1133.000000	0.339656
1134.000000	0.344711
1135.000000	0.371073
1136.000000	0.393150
1137.000000	0.419734
1138.000000	0.423916
1139.000000	0.421594
1140.000000	0.435711
1141.000000	0.461290
1142.000000	0.471921
1143.000000	0.501641
1144.000000	0.513891
1145.000000	0.557047
1146.000000	0.565802
1147.000000	0.593823
1148.000000	0.629646
1149.000000	0.611105
1150.000000	0.644556
1151.000000	0.601045
1152.000000	0.615639
1153.000000	0.592279
1154.000000	0.624748
1155.000000	0.646566
1156.000000	0.683526
1157.000000	0.750689
1158.000000	0.831214
1159.000000	0.887712
1160.000000	0.947808
1161.000000	0.989252
1162.000000	1.056640
1163.000000	1.110233
1164.000000	1.164728
1165.000000	1.180044
1166.000000	1.233443
1167.000000	1.258864
1168.000000	1.310340
1169.000000	1.381708
1170.000000	1.424851
1171.000000	1.454297
1172.000000	1.504415
1173.000000	1.559744
1174.000000	1.632396
1175.000000	1.715851
1176.000000	1.769049
1177.000000	1.836281
1178.000000	1.856047
1179.000000	1.855384
1180.000000	1.878504
1181.000000	1.909052
1182.000000	1.936652
1183.000000	1.983150
1184.000000	2.060499
1185.000000	2.081489
1186.000000	2.137707
1187.000000	2.210723
1188.000000	2.268217
1189.000000	2.270798
1190.000000	2.319954
1191.000000	2.335150
1192.000000	2.349711
1193.000000	2.320444
1194.000000	2.339238
1195.000000	2.333485
1196.000000	2.331134
1197.000000	2.338235
1198.000000	2.375341
1199.000000	2.377944
1200.000000	2.400834
1201.000000	2.416961
1202.000000	2.396723
1203.000000	2.402358
1204.000000	2.405390
1205.000000	2.389217
1206.000000	2.379309
1207.000000	2.354348
1208.000000	2.345750
1209.000000	2.324347
1210.000000	2.289873
1211.000000	2.254275
1212.000000	2.215504
1213.000000	2.210641
1214.000000	2.252090
1215.000000	2.240788
1216.000000	2.260754
1217.000000	2.231727
1218.000000	2.212737
1219.000000	2.187143
1220.000000	2.179870
1221.000000	2.187612
1222.000000	2.157151
1223.000000	2.141755
1224.000000	2.122279
1225.000000	2.106783
1226.000000	2.071320
1227.000000	2.020883
1228.000000	2.015561
1229.000000	1.970652
1230.000000	1.940286
1231.000000	1.932822
1232.000000	1.917966
1233.000000	1.883209
1234.000000	1.870587
1235.000000	1.829960
1236.000000	1.821181
1237.000000	1.801574
1238.000000	1.778730
1239.000000	1.763424
1240.000000	1.734477
1241.000000	1.711199
1242.000000	1.720272
1243.000000	1.719080
1244.000000	1.688743
1245.000000	1.667930
1246.000000	1.664490
1247.000000	1.642012
1248.000000	1.621212
1249.000000	1.592587
1250.000000	1.585020
1251.000000	1.552393
1252.000000	1.564350
1253.000000	1.590452
1254.000000	1.583935
1255.000000	1.508781
1256.000000	1.453482
1257.000000	1.428960
1258.000000	1.396632
1259.000000	1.372588
1260.000000	1.340571
1261.000000	1.323536
1262.000000	1.345133
1263.000000	1.354293
1264.000000	1.341864
1265.000000	1.335081
1266.000000	1.333726
1267.000000	1.350525
1268.000000	1.371757
1269.000000	1.378465
1270.000000	1.372906
1271.000000	1.370036
1272.000000	1.409856
1273.000000	1.405780
1274.000000	1.362324
1275.000000	1.376215
1276.000000	1.400305
1277.000000	1.362655
1278.000000	1.353094
1279.000000	1.375271
1280.000000	1.352480
1281.000000	1.344662
1282.000000	1.335222
1283.000000	1.329223
1284.000000	1.345932
1285.000000	1.333649
1286.000000	1.341975
1287.000000	1.333866
1288.000000	1.256844
1289.000000	1.238017
1290.000000	1.260256
1291.000000	1.274601
1292.000000	1.285772
1293.000000	1.296577
1294.000000	1.317720
1295.000000	1.322982
1296.000000	1.341328
1297.000000	1.349750
1298.000000	1.352061
1299.000000	1.356661
1300.000000	1.347609
1301.000000	1.335644
1302.000000	1.324360
1303.000000	1.322893
1304.000000	1.316647
1305.000000	1.337520
1306.000000	1.320974
1307.000000	1.298192
1308.000000	1.301242
1309.000000	1.315127
1310.000000	1.287722
1311.000000	1.244526
1312.000000	1.239401
1313.000000	1.208179
1314.000000	1.175002
1315.000000	1.177279
1316.000000	1.186849
1317.000000	1.208529
1318.000000	1.203747
1319.000000	1.189344
1320.000000	1.204274
1321.000000	1.157930
1322.000000	1.130868
1323.000000	1.189426
1324.000000	1.227787
1325.000000	1.237400
1326.000000	1.234726
1327.000000	1.227098
1328.000000	1.235928
1329.000000	1.233159
1330.000000	1.245061
1331.000000	1.287736
1332.000000	1.290774
1333.000000	1.291937
1334.000000	1.315413
1335.000000	1.346729
1336.000000	1.374164
1337.000000	1.379090
1338.000000	1.393207
1339.000000	1.419980
1340.000000	1.441087
1341.000000	1.483889
1342.000000	1.506403
1343.000000	1.540183
1344.000000	1.616453
1345.000000	1.666380
1346.000000	1.706115
1347.000000	1.769645
1348.000000	1.824327
1349.000000	1.886201
1350.000000	1.944948
1351.000000	2.054619
1352.000000	2.116679
1353.000000	2.211413
1354.000000	2.259728
1355.000000	2.370251
1356.000000	2.404605
1357.000000	2.481018
1358.000000	2.516840
1359.000000	2.565756
1360.000000	2.558985
1361.000000	2.512553
1362.000000	2.524625
1363.000000	2.569955
1364.000000	2.714732
1365.000000	2.773675
1366.000000	2.763793
1367.000000	2.745639
1368.000000	2.813276
1369.000000	2.807011
1370.000000	2.699072
1371.000000	2.738856
1372.000000	2.833168
1373.000000	2.917503
1374.000000	2.967363
1375.000000	3.005901
1376.000000	3.010258
1377.000000	3.095948
1378.000000	3.175004
1379.000000	3.260068
1380.000000	3.585035
1381.000000	3.786623
1382.000000	3.857541
1383.000000	3.922647
1384.000000	3.855031
1385.000000	3.906730
1386.000000	3.902699
1387.000000	3.800821
1388.000000	3.830817
1389.000000	3.872497
1390.000000	3.854401
1391.000000	3.995228
1392.000000	4.225653
1393.000000	4.364337
1394.000000	4.361935
1395.000000	4.524451
1396.000000	4.780099
1397.000000	4.960835
1398.000000	5.118843
1399.000000	5.104875
1400.000000	5.217612
1401.000000	5.414360
1402.000000	5.615846
1403.000000	5.752696
1404.000000	5.848675
1405.000000	6.177895
1406.000000	6.313135
1407.000000	6.455461
1408.000000	6.616057
1409.000000	6.770657
1410.000000	6.968888
1411.000000	7.193533
1412.000000	7.364221
1413.000000	7.505347
1414.000000	7.619879
1415.000000	7.509678
1416.000000	7.572886
1417.000000	7.774175
1418.000000	7.914968
1419.000000	8.249031
1420.000000	8.440016
1421.000000	8.682349
1422.000000	9.054884
1423.000000	9.188561
1424.000000	9.448979
1425.000000	9.694319
1426.000000	9.891837
1427.000000	9.933882
1428.000000	10.047764
1429.000000	10.318706
1430.000000	10.528901
1431.000000	10.698479
1432.000000	10.870011
1433.000000	11.022752
1434.000000	11.272536
1435.000000	11.467810
1436.000000	11.624047
1437.000000	11.791818
1438.000000	11.982153
1439.000000	12.261019
1440.000000	12.380474
1441.000000	12.555737
1442.000000	12.671085
1443.000000	12.789654
1444.000000	12.964057
1445.000000	13.022043
1446.000000	13.161672
1447.000000	13.304536
1448.000000	13.453431
1449.000000	13.578821
1450.000000	13.712006
1451.000000	13.828723
1452.000000	13.926519
1453.000000	14.080717
1454.000000	14.185203
1455.000000	14.327144
1456.000000	14.383950
1457.000000	14.477474
1458.000000	14.667475
1459.000000	14.746932
1460.000000	14.825386
1461.000000	14.943011
1462.000000	15.046715
1463.000000	15.170221
1464.000000	15.264262
1465.000000	15.360735
1466.000000	15.424395
1467.000000	15.490170
1468.000000	15.561153
1469.000000	15.606846
1470.000000	15.671296
1471.000000	15.737584
1472.000000	15.829133
1473.000000	15.918812
1474.000000	16.011525
1475.000000	16.081582
1476.000000	16.174864
1477.000000	16.281552
1478.000000	16.363020
1479.000000	16.437768
1480.000000	16.572490
1481.000000	16.625753
1482.000000	16.657391
1483.000000	16.698844
1484.000000	16.790056
1485.000000	16.898251
1486.000000	16.982461
1487.000000	17.070724
1488.000000	17.174229
1489.000000	17.223051
1490.000000	17.277794
1491.000000	17.365131
1492.000000	17.431612
1493.000000	17.495069
1494.000000	17.531893
1495.000000	17.576885
1496.000000	17.591343
1497.000000	17.631526
1498.000000	17.678997
1499.000000	17.746319
1500.000000	17.786637
1501.000000	17.844044
1502.000000	17.916587
1503.000000	17.962493
1504.000000	18.018174
1505.000000	18.056828
1506.000000	18.051036
1507.000000	18.053950
1508.000000	18.006015
1509.000000	17.979934
1510.000000	18.006241
1511.000000	18.001382
1512.000000	17.983047
1513.000000	17.970844
1514.000000	17.955772
1515.000000	17.929662
1516.000000	17.887765
1517.000000	17.837546
1518.000000	17.814049
1519.000000	17.754866
1520.000000	17.696369
1521.000000	17.621041
1522.000000	17.539555
1523.000000	17.463636
1524.000000	17.421238
1525.000000	17.357524
1526.000000	17.303330
1527.000000	17.240004
1528.000000	17.156418
1529.000000	17.085035
1530.000000	17.030756
1531.000000	16.971900
1532.000000	16.892218
1533.000000	16.802256
1534.000000	16.691471
1535.000000	16.590321
1536.000000	16.506022
1537.000000	16.399322
1538.000000	16.313427
1539.000000	16.226858
1540.000000	16.137473
1541.000000	16.063557
1542.000000	15.971307
1543.000000	15.911706
1544.000000	15.850737
1545.000000	15.770925
1546.000000	15.694549
1547.000000	15.629060
1548.000000	15.560639
1549.000000	15.476852
1550.000000	15.408039
1551.000000	15.343368
1552.000000	15.285289
1553.000000	15.211654
1554.000000	15.143997
1555.000000	15.072040
1556.000000	15.038843
1557.000000	14.972420
1558.000000	14.874106
1559.000000	14.797323
1560.000000	14.738425
1561.000000	14.656923
1562.000000	14.575519
1563.000000	14.514499
1564.000000	14.442850
1565.000000	14.374613
1566.000000	14.334415
1567.000000	14.282023
1568.000000	14.228747
1569.000000	14.195752
1570.000000	14.135617
1571.000000	14.066659
1572.000000	14.015975
1573.000000	13.971231
1574.000000	13.937251
1575.000000	13.915965
1576.000000	13.920457
1577.000000	13.920308
1578.000000	13.910311
1579.000000	13.863823
1580.000000	13.840847
1581.000000	13.831566
1582.000000	13.794647
1583.000000	13.734258
1584.000000	13.711280
1585.000000	13.701176
1586.000000	13.693737
1587.000000	13.675030
1588.000000	13.631967
1589.000000	13.590249
1590.000000	13.553601
1591.000000	13.512605
1592.000000	13.483298
1593.000000	13.486287
1594.000000	13.455008
1595.000000	13.414205
1596.000000	13.389312
1597.000000	13.340834
1598.000000	13.286877
1599.000000	13.274123
1600.000000	13.218726
1601.000000	13.159323
1602.000000	13.135918
1603.000000	13.091622
1604.000000	13.021481
1605.000000	12.985089
1606.000000	12.940687
1607.000000	12.874870
1608.000000	12.794975
1609.000000	12.721423
1610.000000	12.644381
1611.000000	12.581401
1612.000000	12.503215
1613.000000	12.384793
1614.000000	12.317915
1615.000000	12.229302
1616.000000	12.157523
1617.000000	12.109983
1618.000000	12.081429
1619.000000	12.003727
1620.000000	11.934360
1621.000000	11.858508
1622.000000	11.803701
1623.000000	11.754496
1624.000000	11.750859
1625.000000	11.740421
1626.000000	11.706703
1627.000000	11.662302
1628.000000	11.623595
1629.000000	11.603832
1630.000000	11.578814
1631.000000	11.519392
1632.000000	11.504415
1633.000000	11.499513
1634.000000	11.458876
1635.000000	11.407444
1636.000000	11.354925
1637.000000	11.298140
1638.000000	11.259664
1639.000000	11.241980
1640.000000	11.216280
1641.000000	11.207483
1642.000000	11.139776
1643.000000	11.127127
1644.000000	11.114134
1645.000000	11.106108
1646.000000	11.066429
1647.000000	11.016193
1648.000000	11.025550
1649.000000	11.008020
1650.000000	11.026550
1651.000000	10.937561
1652.000000	10.923871
1653.000000	10.865129
1654.000000	10.860612
1655.000000	10.854308
1656.000000	10.854118
1657.000000	10.831892
1658.000000	10.821849
1659.000000	10.777589
1660.000000	10.737187
1661.000000	10.695945
1662.000000	10.711915
1663.000000	10.731746
1664.000000	10.711743
1665.000000	10.703383
1666.000000	10.747668
1667.000000	10.765500
1668.000000	10.765999
1669.000000	10.825777
1670.000000	10.910078
1671.000000	10.977395
1672.000000	11.043457
1673.000000	11.113155
1674.000000	11.178839
1675.000000	11.263945
1676.000000	11.311565
1677.000000	11.430799
1678.000000	11.518995
1679.000000	11.578329
1680.000000	11.639100
1681.000000	11.719351
1682.000000	11.846542
1683.000000	11.962251
1684.000000	12.080602
1685.000000	12.146999
1686.000000	12.302857
1687.000000	12.402540
1688.000000	12.504954
1689.000000	12.627300
1690.000000	12.693941
1691.000000	12.805515
1692.000000	12.940649
1693.000000	13.016899
1694.000000	13.124995
1695.000000	13.226009
1696.000000	13.350920
1697.000000	13.448154
1698.000000	13.480640
1699.000000	13.567059
1700.000000	13.615163
1701.000000	13.638998
1702.000000	13.677720
1703.000000	13.730532
1704.000000	13.754052
1705.000000	13.776515
1706.000000	13.840431
1707.000000	13.874713
1708.000000	13.911800
1709.000000	13.950714
1710.000000	13.971032
1711.000000	14.042941
1712.000000	14.131209
1713.000000	14.162002
1714.000000	14.194999
1715.000000	14.228504
1716.000000	14.287813
1717.000000	14.355773
1718.000000	14.396449
1719.000000	14.466553
1720.000000	14.570301
1721.000000	14.627823
1722.000000	14.670436
1723.000000	14.768264
1724.000000	14.815250
1725.000000	14.904241
1726.000000	14.984005
1727.000000	15.006829
1728.000000	15.099118
1729.000000	15.169797
1730.000000	15.251083
1731.000000	15.267928
1732.000000	15.298490
1733.000000	15.412964
1734.000000	15.462178
1735.000000	15.542768
1736.000000	15.609737
1737.000000	15.690225
1738.000000	15.766373
1739.000000	15.819785
1740.000000	15.854947
1741.000000	15.868214
1742.000000	15.920532
1743.000000	15.944504
1744.000000	15.957302
1745.000000	15.942234
1746.000000	15.907796
1747.000000	15.856240
1748.000000	15.888420
1749.000000	15.909691
1750.000000	15.937629
1751.000000	15.902563
1752.000000	15.851828
1753.000000	15.817734
1754.000000	15.763336
1755.000000	15.704452
1756.000000	15.639499
1757.000000	15.598866
1758.000000	15.532955
1759.000000	15.464498
1760.000000	15.392565
1761.000000	15.297775
1762.000000	15.234718
1763.000000	15.195310
1764.000000	15.134748
1765.000000	15.062618
1766.000000	15.064808
1767.000000	15.021666
1768.000000	14.951218
1769.000000	14.953346
1770.000000	14.918858
1771.000000	14.878909
1772.000000	14.814195
1773.000000	14.765889
1774.000000	14.720802
1775.000000	14.731448
1776.000000	14.712110
1777.000000	14.638039
1778.000000	14.590368
1779.000000	14.549998
1780.000000	14.537475
1781.000000	14.510175
1782.000000	14.489332
1783.000000	14.416499
1784.000000	14.368193
1785.000000	14.324601
1786.000000	14.305611
1787.000000	14.276734
1788.000000	14.246793
1789.000000	14.215473
1790.000000	14.164557
1791.000000	14.148561
1792.000000	14.099285
1793.000000	14.073911
1794.000000	14.039569
1795.000000	14.001316
1796.000000	13.975058
1797.000000	13.964204
1798.000000	13.930822
1799.000000	13.882556
1800.000000	13.828472
1801.000000	13.764768
1802.000000	13.726879
1803.000000	13.688116
1804.000000	13.597523
1805.000000	13.523885
1806.000000	13.463709
1807.000000	13.430436
1808.000000	13.405137
1809.000000	13.388627
1810.000000	13.341833
1811.000000	13.304378
1812.000000	13.322395
1813.000000	13.365771
1814.000000	13.356216
1815.000000	13.293781
1816.000000	13.245997
1817.000000	13.145251
1818.000000	13.070875
1819.000000	12.979977
1820.000000	12.885972
1821.000000	12.887956
1822.000000	12.897371
1823.000000	12.889897
1824.000000	12.854468
1825.000000	12.744376
1826.000000	12.667692
1827.000000	12.653143
1828.000000	12.622867
1829.000000	12.620703
1830.000000	12.587995
1831.000000	12.554040
1832.000000	12.520868
1833.000000	12.511235
1834.000000	12.510524
1835.000000	12.429412
1836.000000	12.347598
1837.000000	12.295811
1838.000000	12.302329
1839.000000	12.323243
1840.000000	12.341185
1841.000000	12.330319
1842.000000	12.316735
1843.000000	12.304266
1844.000000	12.291422
1845.000000	12.285111
1846.000000	12.211057
1847.000000	12.052559
1848.000000	11.955405
1849.000000	11.908027
1850.000000	11.895677
1851.000000	11.933520
1852.000000	12.035901
1853.000000	12.116161
1854.000000	12.214660
1855.000000	12.266900
1856.000000	12.252886
1857.000000	12.254964
1858.000000	12.215831
1859.000000	12.166843
1860.000000	12.248064
1861.000000	12.311766
1862.000000	12.308951
1863.000000	12.239654
1864.000000	12.217240
1865.000000	12.279701
1866.000000	12.281669
1867.000000	12.268841
1868.000000	12.272246
1869.000000	12.303726
1870.000000	12.333126
1871.000000	12.455503
1872.000000	12.435649
1873.000000	12.434008
1874.000000	12.442509
1875.000000	12.493081
1876.000000	12.500689
1877.000000	12.566554
1878.000000	12.646139
1879.000000	12.737543
1880.000000	12.776428
1881.000000	12.936019
1882.000000	13.158802
1883.000000	13.276104
1884.000000	13.447491
1885.000000	13.635522
1886.000000	13.763087
1887.000000	13.936628
1888.000000	14.110565
1889.000000	14.242749
1890.000000	14.512646
1891.000000	14.726823
1892.000000	14.938920
1893.000000	15.260107
1894.000000	15.623991
1895.000000	15.956261
1896.000000	16.318913
1897.000000	16.701622
1898.000000	17.172496
1899.000000	17.612377
1900.000000	18.046236
1901.000000	18.506750
1902.000000	18.858402
1903.000000	19.376361
1904.000000	19.849739
1905.000000	20.408443
1906.000000	20.882376
1907.000000	21.546433
1908.000000	22.106062
1909.000000	22.690758
1910.000000	23.266133
1911.000000	23.951080
1912.000000	24.532029
1913.000000	25.107905
1914.000000	25.684808
1915.000000	26.264697
1916.000000	26.855191
1917.000000	27.517467
1918.000000	28.219239
1919.000000	28.767565
1920.000000	29.339514
1921.000000	30.011925
1922.000000	30.595399
1923.000000	31.143040
1924.000000	31.779389
1925.000000	32.267939
1926.000000	32.803400
1927.000000	33.385372
1928.000000	33.880108
1929.000000	34.372384
1930.000000	34.821569
1931.000000	35.231525
1932.000000	35.652415
1933.000000	36.039844
1934.000000	36.442566
1935.000000	36.760182
1936.000000	37.118124
1937.000000	37.580079
1938.000000	37.842209
1939.000000	38.162043
1940.000000	38.446709
1941.000000	38.700202
1942.000000	38.911813
1943.000000	39.122324
1944.000000	39.297815
1945.000000	39.438105
1946.000000	39.529509
1947.000000	39.655865
1948.000000	39.758893
1949.000000	39.858854
1950.000000	39.979141
1951.000000	40.009056
1952.000000	39.978447
1953.000000	39.931965
1954.000000	39.993522
1955.000000	40.019962
1956.000000	39.912151
1957.000000	39.884777
1958.000000	39.861035
1959.000000	39.791928
1960.000000	39.743068
1961.000000	39.664136
1962.000000	39.512935
1963.000000	39.418499
1964.000000	39.276468
1965.000000	39.167415
1966.000000	39.094615
1967.000000	38.937844
1968.000000	38.807710
1969.000000	38.606295
1970.000000	38.482731
1971.000000	38.344132
1972.000000	38.212616
1973.000000	38.042239
1974.000000	37.839563
1975.000000	37.658474
1976.000000	37.472909
1977.000000	37.275809
1978.000000	37.083782
1979.000000	36.915699
1980.000000	36.760419
1981.000000	36.590629
1982.000000	36.459954
1983.000000	36.307221
1984.000000	36.122338
1985.000000	35.951597
1986.000000	35.795069
1987.000000	35.623574
1988.000000	35.458793
1989.000000	35.282567
1990.000000	35.130065
1991.000000	35.023203
1992.000000	34.832916
1993.000000	34.673640
1994.000000	34.493583
1995.000000	34.308823
1996.000000	34.136828
1997.000000	33.968099
1998.000000	33.772481
1999.000000	33.639692
2000.000000	33.489728
