PE UV       SUBTECH     SPECTRUM    ASCII       PEDS        4.00        
   -1
BIOUCR0026-3.Sample.ASC
24/02/20
14:28:19.00
24/02/20
14:28:19.00
Vinicio Soto Monge
P. resplendens 18 de Mayo de 1985 R.W. Volcan, Panama Centro cafe bajo fIltro izq. 
250,000000
1
Lambda 1050
1050L1511233
PerkinElmer UV WinLab 6.3.2.0749 / 2.02.05 Lambda 900 UV/VIS/NIR, Aug  7 2015 09:38:08

0
0
3350/servo 860,8/2
0
0
UV/VIS
1
1
1
DoubleDePol,CommonBeamDepol,RBeamAtt,SBeamAtt,60mm sphere, WB InGaAs Detector
0
0
0
0
Program
Program
3350/servo 860,8/2
3350/0,2 860,8/0,2
3350/0,2 860,8/0,2
0
15.00
 
 
 
0
 
860,8
319,2
860,8
Front
100
on
S:100 R:100
0
0
0
0
 
0
 
 
 
0
 
 
0
0
0
0
0
 
 
 
 
0
0


0
0
#HDR
-1
-1
#GR
nm
%R
1.0
0.0
2500,000000
-1,000000
2251
8
21,642600
1,531600
#DATA

250.000000	nan
251.000000	nan
252.000000	nan
253.000000	nan
254.000000	nan
255.000000	nan
256.000000	nan
257.000000	nan
258.000000	nan
259.000000	2.287576
260.000000	2.282423
261.000000	2.275153
262.000000	2.269153
263.000000	2.266067
264.000000	2.260890
265.000000	2.255211
266.000000	2.246835
267.000000	2.242602
268.000000	2.233963
269.000000	2.224332
270.000000	2.214929
271.000000	2.206361
272.000000	2.199796
273.000000	2.194167
274.000000	2.188248
275.000000	2.182751
276.000000	2.180672
277.000000	2.175214
278.000000	2.172570
279.000000	2.170172
280.000000	2.169091
281.000000	2.167043
282.000000	2.164206
283.000000	2.159441
284.000000	2.152023
285.000000	2.147739
286.000000	2.142061
287.000000	2.136559
288.000000	2.130843
289.000000	2.127068
290.000000	2.121029
291.000000	2.115023
292.000000	2.109715
293.000000	2.102751
294.000000	2.102115
295.000000	2.096840
296.000000	2.092993
297.000000	2.090390
298.000000	2.086854
299.000000	2.084444
300.000000	2.080209
301.000000	2.075802
302.000000	2.073514
303.000000	2.070042
304.000000	2.064735
305.000000	2.062748
306.000000	2.061840
307.000000	2.057301
308.000000	2.055366
309.000000	2.048082
310.000000	2.044867
311.000000	2.044865
312.000000	2.041722
313.000000	2.041564
314.000000	2.037462
315.000000	2.032953
316.000000	2.032919
317.000000	2.062150
318.000000	2.080395
319.000000	2.102650
320.000000	2.119331
321.000000	2.130987
322.000000	2.153901
323.000000	2.161833
324.000000	2.169816
325.000000	2.186307
326.000000	2.195032
327.000000	2.178540
328.000000	2.177100
329.000000	2.166407
330.000000	2.158152
331.000000	2.150191
332.000000	2.129514
333.000000	2.122441
334.000000	2.126565
335.000000	2.115722
336.000000	2.102814
337.000000	2.092656
338.000000	2.080341
339.000000	2.077542
340.000000	2.069248
341.000000	2.059160
342.000000	2.054257
343.000000	2.051809
344.000000	2.033727
345.000000	2.026925
346.000000	2.019897
347.000000	2.012544
348.000000	2.001912
349.000000	1.990958
350.000000	1.985050
351.000000	1.988206
352.000000	1.984995
353.000000	1.981503
354.000000	1.988688
355.000000	1.988571
356.000000	1.989547
357.000000	1.991739
358.000000	1.994409
359.000000	1.995388
360.000000	1.996964
361.000000	1.988649
362.000000	1.984479
363.000000	1.982108
364.000000	1.975542
365.000000	1.969032
366.000000	1.967453
367.000000	1.958771
368.000000	1.948442
369.000000	1.935381
370.000000	1.919265
371.000000	1.911721
372.000000	1.901132
373.000000	1.888728
374.000000	1.871721
375.000000	1.854090
376.000000	1.846784
377.000000	1.827489
378.000000	1.810703
379.000000	1.796821
380.000000	1.788707
381.000000	1.777592
382.000000	1.769081
383.000000	1.760779
384.000000	1.759385
385.000000	1.760690
386.000000	1.751286
387.000000	1.757777
388.000000	1.764638
389.000000	1.771866
390.000000	1.779571
391.000000	1.788298
392.000000	1.797736
393.000000	1.807889
394.000000	1.818774
395.000000	1.831099
396.000000	1.844142
397.000000	1.857927
398.000000	1.873732
399.000000	1.891235
400.000000	1.910444
401.000000	1.931162
402.000000	1.953674
403.000000	1.978558
404.000000	2.006862
405.000000	2.037368
406.000000	2.069687
407.000000	2.104074
408.000000	2.140794
409.000000	2.180443
410.000000	2.222701
411.000000	2.267616
412.000000	2.315113
413.000000	2.364917
414.000000	2.417121
415.000000	2.471635
416.000000	2.529098
417.000000	2.589000
418.000000	2.651383
419.000000	2.716003
420.000000	2.782808
421.000000	2.851779
422.000000	2.922656
423.000000	2.995230
424.000000	3.069206
425.000000	3.145087
426.000000	3.222568
427.000000	3.301664
428.000000	3.382133
429.000000	3.463489
430.000000	3.545576
431.000000	3.628568
432.000000	3.712572
433.000000	3.796718
434.000000	3.881178
435.000000	3.965985
436.000000	4.050876
437.000000	4.135541
438.000000	4.219451
439.000000	4.303117
440.000000	4.386182
441.000000	4.468288
442.000000	4.549677
443.000000	4.630662
444.000000	4.710057
445.000000	4.788066
446.000000	4.865231
447.000000	4.941111
448.000000	5.015802
449.000000	5.088679
450.000000	5.159061
451.000000	5.227701
452.000000	5.293577
453.000000	5.355864
454.000000	5.414723
455.000000	5.469605
456.000000	5.520697
457.000000	5.567782
458.000000	5.610406
459.000000	5.648783
460.000000	5.683333
461.000000	5.713127
462.000000	5.738201
463.000000	5.759344
464.000000	5.777076
465.000000	5.790397
466.000000	5.798285
467.000000	5.801616
468.000000	5.800961
469.000000	5.796342
470.000000	5.788240
471.000000	5.777196
472.000000	5.763826
473.000000	5.748564
474.000000	5.731868
475.000000	5.715355
476.000000	5.700167
477.000000	5.687384
478.000000	5.677674
479.000000	5.671616
480.000000	5.669223
481.000000	5.670154
482.000000	5.675617
483.000000	5.687395
484.000000	5.707232
485.000000	5.735627
486.000000	5.773332
487.000000	5.819848
488.000000	5.874993
489.000000	5.939052
490.000000	6.011948
491.000000	6.094359
492.000000	6.185385
493.000000	6.282921
494.000000	6.385392
495.000000	6.492050
496.000000	6.600114
497.000000	6.709138
498.000000	6.818512
499.000000	6.926908
500.000000	7.033804
501.000000	7.138962
502.000000	7.240976
503.000000	7.339830
504.000000	7.434990
505.000000	7.525609
506.000000	7.611955
507.000000	7.691854
508.000000	7.765450
509.000000	7.832872
510.000000	7.894037
511.000000	7.949011
512.000000	7.997666
513.000000	8.039626
514.000000	8.074627
515.000000	8.102765
516.000000	8.124967
517.000000	8.142551
518.000000	8.156813
519.000000	8.169231
520.000000	8.180373
521.000000	8.190186
522.000000	8.201130
523.000000	8.214447
524.000000	8.231702
525.000000	8.255093
526.000000	8.284574
527.000000	8.323165
528.000000	8.370927
529.000000	8.428252
530.000000	8.496640
531.000000	8.577787
532.000000	8.671947
533.000000	8.780034
534.000000	8.902237
535.000000	9.037506
536.000000	9.187511
537.000000	9.349927
538.000000	9.525217
539.000000	9.712095
540.000000	9.909643
541.000000	10.117544
542.000000	10.334221
543.000000	10.558220
544.000000	10.787239
545.000000	11.021204
546.000000	11.257791
547.000000	11.496263
548.000000	11.734296
549.000000	11.970757
550.000000	12.205475
551.000000	12.434572
552.000000	12.657627
553.000000	12.873506
554.000000	13.083516
555.000000	13.285415
556.000000	13.479462
557.000000	13.664384
558.000000	13.840488
559.000000	14.008322
560.000000	14.128110
561.000000	14.234754
562.000000	14.331641
563.000000	14.419438
564.000000	14.499158
565.000000	14.571725
566.000000	14.637974
567.000000	14.698662
568.000000	14.755024
569.000000	14.807581
570.000000	14.894732
571.000000	14.982824
572.000000	15.069436
573.000000	15.155066
574.000000	15.236856
575.000000	15.314392
576.000000	15.387955
577.000000	15.459403
578.000000	15.526499
579.000000	15.588851
580.000000	15.648166
581.000000	15.705087
582.000000	15.758535
583.000000	15.808393
584.000000	15.855849
585.000000	15.903270
586.000000	15.949320
587.000000	15.994203
588.000000	16.039306
589.000000	16.084521
590.000000	16.127483
591.000000	16.168170
592.000000	16.207334
593.000000	16.242621
594.000000	16.273478
595.000000	16.296693
596.000000	16.314622
597.000000	16.323119
598.000000	16.322103
599.000000	16.310027
600.000000	16.291176
601.000000	16.262918
602.000000	16.226985
603.000000	16.185828
604.000000	16.138863
605.000000	16.091025
606.000000	16.038092
607.000000	15.986172
608.000000	15.934359
609.000000	15.885836
610.000000	15.839169
611.000000	15.798509
612.000000	15.761569
613.000000	15.728240
614.000000	15.700567
615.000000	15.674673
616.000000	15.652107
617.000000	15.630335
618.000000	15.608091
619.000000	15.585342
620.000000	15.559957
621.000000	15.529529
622.000000	15.492848
623.000000	15.448735
624.000000	15.397061
625.000000	15.336630
626.000000	15.267767
627.000000	15.188906
628.000000	15.102202
629.000000	15.006357
630.000000	14.901582
631.000000	14.788323
632.000000	14.669124
633.000000	14.545055
634.000000	14.414532
635.000000	14.282632
636.000000	14.149484
637.000000	14.018558
638.000000	13.890439
639.000000	13.764496
640.000000	13.643654
641.000000	13.528123
642.000000	13.419060
643.000000	13.318114
644.000000	13.226031
645.000000	13.141198
646.000000	13.065904
647.000000	12.997288
648.000000	12.935876
649.000000	12.883287
650.000000	12.838709
651.000000	12.802032
652.000000	12.772630
653.000000	12.749080
654.000000	12.732076
655.000000	12.720738
656.000000	12.712600
657.000000	12.710247
658.000000	12.712878
659.000000	12.720232
660.000000	12.730294
661.000000	12.744648
662.000000	12.764292
663.000000	12.788641
664.000000	12.815403
665.000000	12.846887
666.000000	12.884914
667.000000	12.925654
668.000000	12.971942
669.000000	13.021591
670.000000	13.076540
671.000000	13.136655
672.000000	13.200593
673.000000	13.269418
674.000000	13.342826
675.000000	13.418816
676.000000	13.498675
677.000000	13.581728
678.000000	13.665699
679.000000	13.751886
680.000000	13.837614
681.000000	13.923248
682.000000	14.006380
683.000000	14.086004
684.000000	14.163429
685.000000	14.237339
686.000000	14.305269
687.000000	14.367744
688.000000	14.425822
689.000000	14.479707
690.000000	14.529872
691.000000	14.573756
692.000000	14.613404
693.000000	14.648917
694.000000	14.680584
695.000000	14.708120
696.000000	14.731882
697.000000	14.754979
698.000000	14.775613
699.000000	14.793877
700.000000	14.810047
701.000000	14.826563
702.000000	14.842694
703.000000	14.859131
704.000000	14.876000
705.000000	14.895382
706.000000	14.916395
707.000000	14.938302
708.000000	14.960777
709.000000	14.985584
710.000000	15.011789
711.000000	15.036782
712.000000	15.063268
713.000000	15.090324
714.000000	15.117907
715.000000	15.143842
716.000000	15.170250
717.000000	15.197369
718.000000	15.224725
719.000000	15.249234
720.000000	15.274002
721.000000	15.300845
722.000000	15.326293
723.000000	15.351177
724.000000	15.376223
725.000000	15.402554
726.000000	15.428835
727.000000	15.454969
728.000000	15.480578
729.000000	15.505485
730.000000	15.530573
731.000000	15.555338
732.000000	15.580895
733.000000	15.606074
734.000000	15.630452
735.000000	15.655982
736.000000	15.683327
737.000000	15.711637
738.000000	15.740622
739.000000	15.772494
740.000000	15.805151
741.000000	15.837928
742.000000	15.870609
743.000000	15.902576
744.000000	15.933487
745.000000	15.960849
746.000000	15.984848
747.000000	16.006451
748.000000	16.026921
749.000000	16.046018
750.000000	16.061485
751.000000	16.074321
752.000000	16.086156
753.000000	16.098463
754.000000	16.110057
755.000000	16.123765
756.000000	16.137788
757.000000	16.149615
758.000000	16.161017
759.000000	16.171980
760.000000	16.184440
761.000000	16.199524
762.000000	16.213471
763.000000	16.225158
764.000000	16.236670
765.000000	16.246631
766.000000	16.257306
767.000000	16.270298
768.000000	16.283073
769.000000	16.293421
770.000000	16.303222
771.000000	16.312033
772.000000	16.322104
773.000000	16.334764
774.000000	16.348486
775.000000	16.362738
776.000000	16.375591
777.000000	16.387200
778.000000	16.399128
779.000000	16.413323
780.000000	16.426362
781.000000	16.438378
782.000000	16.452298
783.000000	16.465730
784.000000	16.477615
785.000000	16.490125
786.000000	16.502642
787.000000	16.514499
788.000000	16.526627
789.000000	16.537782
790.000000	16.550260
791.000000	16.569189
792.000000	16.587783
793.000000	16.604277
794.000000	16.623601
795.000000	16.640924
796.000000	16.655377
797.000000	16.672997
798.000000	16.690548
799.000000	16.707464
800.000000	16.723621
801.000000	16.732856
802.000000	16.740157
803.000000	16.751616
804.000000	16.761857
805.000000	16.775919
806.000000	16.795916
807.000000	16.816083
808.000000	16.844378
809.000000	16.874971
810.000000	16.905640
811.000000	16.939331
812.000000	16.974106
813.000000	17.006819
814.000000	17.041605
815.000000	17.070867
816.000000	17.098243
817.000000	17.126847
818.000000	17.147987
819.000000	17.168430
820.000000	17.192097
821.000000	17.216287
822.000000	17.240520
823.000000	17.264962
824.000000	17.291506
825.000000	17.322430
826.000000	17.354363
827.000000	17.385879
828.000000	17.422096
829.000000	17.458491
830.000000	17.495006
831.000000	17.528732
832.000000	17.566283
833.000000	17.599769
834.000000	17.630385
835.000000	17.661219
836.000000	17.689560
837.000000	17.718234
838.000000	17.748286
839.000000	17.774800
840.000000	17.791501
841.000000	17.811196
842.000000	17.832668
843.000000	17.861263
844.000000	17.888107
845.000000	17.925345
846.000000	17.957829
847.000000	17.990396
848.000000	18.020465
849.000000	18.035122
850.000000	18.051881
851.000000	18.075351
852.000000	18.085651
853.000000	18.095896
854.000000	18.103578
855.000000	18.102961
856.000000	18.111206
857.000000	18.162094
858.000000	18.225009
859.000000	18.323290
860.000000	18.429665
861.000000	18.527882
862.000000	18.635257
863.000000	18.743800
864.000000	18.861330
865.000000	18.979302
866.000000	19.096423
867.000000	19.169958
868.000000	19.228623
869.000000	19.272847
870.000000	19.316267
871.000000	19.360370
872.000000	19.401773
873.000000	19.440373
874.000000	19.473303
875.000000	19.505500
876.000000	19.537020
877.000000	19.567760
878.000000	19.599153
879.000000	19.629427
880.000000	19.659693
881.000000	19.690047
882.000000	19.721907
883.000000	19.755980
884.000000	19.792080
885.000000	19.826117
886.000000	19.860347
887.000000	19.894900
888.000000	19.931063
889.000000	19.966890
890.000000	20.001927
891.000000	20.036937
892.000000	20.074770
893.000000	20.110620
894.000000	20.147350
895.000000	20.184107
896.000000	20.220210
897.000000	20.257750
898.000000	20.294173
899.000000	20.331540
900.000000	20.371750
901.000000	20.410643
902.000000	20.447840
903.000000	20.484320
904.000000	20.520227
905.000000	20.557777
906.000000	20.597423
907.000000	20.635940
908.000000	20.674743
909.000000	20.713827
910.000000	20.749630
911.000000	20.788893
912.000000	20.826617
913.000000	20.864750
914.000000	20.900933
915.000000	20.935930
916.000000	20.967803
917.000000	21.001003
918.000000	21.033223
919.000000	21.063513
920.000000	21.090953
921.000000	21.114553
922.000000	21.136350
923.000000	21.157570
924.000000	21.177623
925.000000	21.196373
926.000000	21.211800
927.000000	21.223493
928.000000	21.232083
929.000000	21.238173
930.000000	21.245423
931.000000	21.253417
932.000000	21.261143
933.000000	21.267223
934.000000	21.274220
935.000000	21.281150
936.000000	21.290303
937.000000	21.299883
938.000000	21.308377
939.000000	21.318223
940.000000	21.328207
941.000000	21.334557
942.000000	21.336940
943.000000	21.338593
944.000000	21.336737
945.000000	21.331523
946.000000	21.327083
947.000000	21.319963
948.000000	21.312920
949.000000	21.305627
950.000000	21.296897
951.000000	21.288170
952.000000	21.283663
953.000000	21.278140
954.000000	21.275367
955.000000	21.273123
956.000000	21.268057
957.000000	21.264280
958.000000	21.262200
959.000000	21.258933
960.000000	21.255197
961.000000	21.251447
962.000000	21.245670
963.000000	21.240860
964.000000	21.234253
965.000000	21.225660
966.000000	21.216117
967.000000	21.205333
968.000000	21.191967
969.000000	21.177163
970.000000	21.159900
971.000000	21.142113
972.000000	21.125133
973.000000	21.105993
974.000000	21.086360
975.000000	21.067267
976.000000	21.049720
977.000000	21.033280
978.000000	21.016300
979.000000	21.001140
980.000000	20.988567
981.000000	20.976110
982.000000	20.962747
983.000000	20.951117
984.000000	20.939813
985.000000	20.928447
986.000000	20.915643
987.000000	20.902203
988.000000	20.891050
989.000000	20.878603
990.000000	20.865957
991.000000	20.854107
992.000000	20.842407
993.000000	20.829600
994.000000	20.816257
995.000000	20.804120
996.000000	20.792763
997.000000	20.781433
998.000000	20.769917
999.000000	20.758707
1000.000000	20.749790
1001.000000	20.742063
1002.000000	20.734350
1003.000000	20.728987
1004.000000	20.724663
1005.000000	20.720593
1006.000000	20.717900
1007.000000	20.714877
1008.000000	20.711020
1009.000000	20.708467
1010.000000	20.705187
1011.000000	20.701600
1012.000000	20.697680
1013.000000	20.690953
1014.000000	20.683383
1015.000000	20.676423
1016.000000	20.669540
1017.000000	20.662870
1018.000000	20.655763
1019.000000	20.647940
1020.000000	20.638610
1021.000000	20.628467
1022.000000	20.620113
1023.000000	20.614097
1024.000000	20.608997
1025.000000	20.602867
1026.000000	20.597153
1027.000000	20.592090
1028.000000	20.587413
1029.000000	20.584270
1030.000000	20.582773
1031.000000	20.581050
1032.000000	20.578283
1033.000000	20.575027
1034.000000	20.571440
1035.000000	20.568230
1036.000000	20.563677
1037.000000	20.557860
1038.000000	20.552107
1039.000000	20.544427
1040.000000	20.535070
1041.000000	20.526260
1042.000000	20.517233
1043.000000	20.507523
1044.000000	20.497953
1045.000000	20.488643
1046.000000	20.479943
1047.000000	20.471117
1048.000000	20.463770
1049.000000	20.458740
1050.000000	20.454727
1051.000000	20.451883
1052.000000	20.449253
1053.000000	20.446653
1054.000000	20.445497
1055.000000	20.445527
1056.000000	20.446410
1057.000000	20.447617
1058.000000	20.448270
1059.000000	20.449153
1060.000000	20.450677
1061.000000	20.452227
1062.000000	20.454640
1063.000000	20.456550
1064.000000	20.458603
1065.000000	20.461097
1066.000000	20.464417
1067.000000	20.469530
1068.000000	20.475160
1069.000000	20.481550
1070.000000	20.488737
1071.000000	20.495400
1072.000000	20.502320
1073.000000	20.510327
1074.000000	20.518137
1075.000000	20.527030
1076.000000	20.536097
1077.000000	20.545020
1078.000000	20.553630
1079.000000	20.561547
1080.000000	20.570450
1081.000000	20.580567
1082.000000	20.590683
1083.000000	20.600997
1084.000000	20.611993
1085.000000	20.622853
1086.000000	20.633193
1087.000000	20.644397
1088.000000	20.655533
1089.000000	20.666997
1090.000000	20.677427
1091.000000	20.685957
1092.000000	20.694990
1093.000000	20.703747
1094.000000	20.710767
1095.000000	20.717440
1096.000000	20.723090
1097.000000	20.727320
1098.000000	20.732133
1099.000000	20.735513
1100.000000	20.736880
1101.000000	20.739903
1102.000000	20.741810
1103.000000	20.744963
1104.000000	20.749217
1105.000000	20.752407
1106.000000	20.755910
1107.000000	20.759147
1108.000000	20.762837
1109.000000	20.767293
1110.000000	20.771613
1111.000000	20.774023
1112.000000	20.776037
1113.000000	20.775843
1114.000000	20.776127
1115.000000	20.776587
1116.000000	20.777137
1117.000000	20.778440
1118.000000	20.777400
1119.000000	20.775237
1120.000000	20.772760
1121.000000	20.770940
1122.000000	20.769433
1123.000000	20.768677
1124.000000	20.766507
1125.000000	20.762483
1126.000000	20.755937
1127.000000	20.747713
1128.000000	20.738767
1129.000000	20.729987
1130.000000	20.721773
1131.000000	20.710013
1132.000000	20.694550
1133.000000	20.674077
1134.000000	20.652320
1135.000000	20.633363
1136.000000	20.616397
1137.000000	20.598133
1138.000000	20.576403
1139.000000	20.551730
1140.000000	20.525280
1141.000000	20.499047
1142.000000	20.473697
1143.000000	20.450857
1144.000000	20.428197
1145.000000	20.402320
1146.000000	20.376390
1147.000000	20.351857
1148.000000	20.331107
1149.000000	20.310837
1150.000000	20.291767
1151.000000	20.274730
1152.000000	20.257397
1153.000000	20.241433
1154.000000	20.225550
1155.000000	20.209303
1156.000000	20.189613
1157.000000	20.168953
1158.000000	20.146020
1159.000000	20.122297
1160.000000	20.094923
1161.000000	20.064040
1162.000000	20.031170
1163.000000	19.996793
1164.000000	19.959343
1165.000000	19.918837
1166.000000	19.877953
1167.000000	19.836217
1168.000000	19.792490
1169.000000	19.748887
1170.000000	19.708250
1171.000000	19.669767
1172.000000	19.632867
1173.000000	19.595950
1174.000000	19.561280
1175.000000	19.531967
1176.000000	19.505580
1177.000000	19.479840
1178.000000	19.458170
1179.000000	19.438120
1180.000000	19.416327
1181.000000	19.396160
1182.000000	19.378240
1183.000000	19.360930
1184.000000	19.345510
1185.000000	19.328083
1186.000000	19.312643
1187.000000	19.299560
1188.000000	19.287147
1189.000000	19.277363
1190.000000	19.272257
1191.000000	19.270517
1192.000000	19.271750
1193.000000	19.276533
1194.000000	19.284633
1195.000000	19.295777
1196.000000	19.308160
1197.000000	19.323257
1198.000000	19.341593
1199.000000	19.359877
1200.000000	19.378780
1201.000000	19.396803
1202.000000	19.415203
1203.000000	19.433450
1204.000000	19.451143
1205.000000	19.469887
1206.000000	19.487323
1207.000000	19.505490
1208.000000	19.522473
1209.000000	19.540617
1210.000000	19.558630
1211.000000	19.577443
1212.000000	19.596650
1213.000000	19.616060
1214.000000	19.635223
1215.000000	19.655427
1216.000000	19.675623
1217.000000	19.693907
1218.000000	19.712950
1219.000000	19.731503
1220.000000	19.749730
1221.000000	19.766643
1222.000000	19.781497
1223.000000	19.796773
1224.000000	19.810143
1225.000000	19.820083
1226.000000	19.831547
1227.000000	19.842833
1228.000000	19.851557
1229.000000	19.859953
1230.000000	19.866287
1231.000000	19.871883
1232.000000	19.878163
1233.000000	19.882177
1234.000000	19.887103
1235.000000	19.891803
1236.000000	19.893937
1237.000000	19.894883
1238.000000	19.895610
1239.000000	19.894793
1240.000000	19.895593
1241.000000	19.896453
1242.000000	19.896603
1243.000000	19.897117
1244.000000	19.897070
1245.000000	19.898893
1246.000000	19.902047
1247.000000	19.906573
1248.000000	19.912353
1249.000000	19.920113
1250.000000	19.930247
1251.000000	19.940670
1252.000000	19.951500
1253.000000	19.963893
1254.000000	19.976903
1255.000000	19.988547
1256.000000	19.999767
1257.000000	20.011147
1258.000000	20.023993
1259.000000	20.036173
1260.000000	20.044677
1261.000000	20.051943
1262.000000	20.059163
1263.000000	20.065367
1264.000000	20.070237
1265.000000	20.075157
1266.000000	20.079547
1267.000000	20.081593
1268.000000	20.081017
1269.000000	20.079693
1270.000000	20.078693
1271.000000	20.077873
1272.000000	20.076957
1273.000000	20.075017
1274.000000	20.071727
1275.000000	20.068000
1276.000000	20.064053
1277.000000	20.060057
1278.000000	20.056503
1279.000000	20.052360
1280.000000	20.048150
1281.000000	20.044873
1282.000000	20.042010
1283.000000	20.040987
1284.000000	20.041920
1285.000000	20.042273
1286.000000	20.042607
1287.000000	20.044340
1288.000000	20.047290
1289.000000	20.051330
1290.000000	20.056853
1291.000000	20.062490
1292.000000	20.067097
1293.000000	20.071120
1294.000000	20.075637
1295.000000	20.081490
1296.000000	20.087180
1297.000000	20.092207
1298.000000	20.096747
1299.000000	20.101950
1300.000000	20.106447
1301.000000	20.109767
1302.000000	20.114170
1303.000000	20.117757
1304.000000	20.119740
1305.000000	20.121540
1306.000000	20.123593
1307.000000	20.125310
1308.000000	20.125797
1309.000000	20.124057
1310.000000	20.121793
1311.000000	20.119413
1312.000000	20.115473
1313.000000	20.111650
1314.000000	20.107973
1315.000000	20.102147
1316.000000	20.094007
1317.000000	20.084733
1318.000000	20.075103
1319.000000	20.065740
1320.000000	20.055583
1321.000000	20.044350
1322.000000	20.031680
1323.000000	20.017650
1324.000000	20.002503
1325.000000	19.986670
1326.000000	19.970037
1327.000000	19.952053
1328.000000	19.932903
1329.000000	19.912363
1330.000000	19.890523
1331.000000	19.868023
1332.000000	19.845167
1333.000000	19.821360
1334.000000	19.796483
1335.000000	19.770490
1336.000000	19.743487
1337.000000	19.717007
1338.000000	19.690167
1339.000000	19.661480
1340.000000	19.631170
1341.000000	19.599757
1342.000000	19.567160
1343.000000	19.532720
1344.000000	19.496607
1345.000000	19.459403
1346.000000	19.419337
1347.000000	19.377127
1348.000000	19.335487
1349.000000	19.293800
1350.000000	19.249280
1351.000000	19.200993
1352.000000	19.150950
1353.000000	19.097890
1354.000000	19.044823
1355.000000	18.996663
1356.000000	18.954343
1357.000000	18.912297
1358.000000	18.866537
1359.000000	18.819973
1360.000000	18.771827
1361.000000	18.730550
1362.000000	18.702297
1363.000000	18.681197
1364.000000	18.655170
1365.000000	18.624707
1366.000000	18.591293
1367.000000	18.551167
1368.000000	18.512697
1369.000000	18.475457
1370.000000	18.435560
1371.000000	18.384930
1372.000000	18.318150
1373.000000	18.236380
1374.000000	18.143997
1375.000000	18.036213
1376.000000	17.915300
1377.000000	17.785880
1378.000000	17.640773
1379.000000	17.477300
1380.000000	17.309180
1381.000000	17.139913
1382.000000	16.977903
1383.000000	16.829983
1384.000000	16.700283
1385.000000	16.582670
1386.000000	16.477043
1387.000000	16.386260
1388.000000	16.319943
1389.000000	16.277360
1390.000000	16.244950
1391.000000	16.215697
1392.000000	16.189787
1393.000000	16.167407
1394.000000	16.145550
1395.000000	16.129857
1396.000000	16.130913
1397.000000	16.136743
1398.000000	16.127040
1399.000000	16.104280
1400.000000	16.088360
1401.000000	16.091927
1402.000000	16.087583
1403.000000	16.065333
1404.000000	16.033307
1405.000000	16.002817
1406.000000	15.954473
1407.000000	15.898727
1408.000000	15.845273
1409.000000	15.796453
1410.000000	15.740903
1411.000000	15.665600
1412.000000	15.584150
1413.000000	15.508357
1414.000000	15.437197
1415.000000	15.363233
1416.000000	15.286017
1417.000000	15.201473
1418.000000	15.119153
1419.000000	15.039093
1420.000000	14.961090
1421.000000	14.883513
1422.000000	14.808227
1423.000000	14.737343
1424.000000	14.667737
1425.000000	14.594623
1426.000000	14.522347
1427.000000	14.459033
1428.000000	14.397383
1429.000000	14.335677
1430.000000	14.271850
1431.000000	14.209900
1432.000000	14.154997
1433.000000	14.103690
1434.000000	14.050970
1435.000000	14.000277
1436.000000	13.953220
1437.000000	13.907943
1438.000000	13.863903
1439.000000	13.822800
1440.000000	13.782623
1441.000000	13.746317
1442.000000	13.709127
1443.000000	13.671393
1444.000000	13.636593
1445.000000	13.602263
1446.000000	13.573200
1447.000000	13.547683
1448.000000	13.519167
1449.000000	13.486680
1450.000000	13.459077
1451.000000	13.433583
1452.000000	13.409607
1453.000000	13.383497
1454.000000	13.357510
1455.000000	13.332807
1456.000000	13.305387
1457.000000	13.275297
1458.000000	13.249477
1459.000000	13.225897
1460.000000	13.198777
1461.000000	13.170457
1462.000000	13.141740
1463.000000	13.114180
1464.000000	13.087893
1465.000000	13.060767
1466.000000	13.034877
1467.000000	13.008043
1468.000000	12.981020
1469.000000	12.953417
1470.000000	12.926737
1471.000000	12.901377
1472.000000	12.876640
1473.000000	12.853093
1474.000000	12.829513
1475.000000	12.805357
1476.000000	12.780243
1477.000000	12.757197
1478.000000	12.735963
1479.000000	12.716633
1480.000000	12.698277
1481.000000	12.681557
1482.000000	12.665120
1483.000000	12.649320
1484.000000	12.632417
1485.000000	12.618787
1486.000000	12.606757
1487.000000	12.594580
1488.000000	12.582093
1489.000000	12.570893
1490.000000	12.560060
1491.000000	12.547597
1492.000000	12.535903
1493.000000	12.524370
1494.000000	12.515103
1495.000000	12.507330
1496.000000	12.499230
1497.000000	12.492647
1498.000000	12.487733
1499.000000	12.483960
1500.000000	12.481993
1501.000000	12.481650
1502.000000	12.483153
1503.000000	12.487523
1504.000000	12.495093
1505.000000	12.502430
1506.000000	12.512793
1507.000000	12.524753
1508.000000	12.537993
1509.000000	12.552703
1510.000000	12.568563
1511.000000	12.586637
1512.000000	12.605850
1513.000000	12.625603
1514.000000	12.645077
1515.000000	12.665777
1516.000000	12.686973
1517.000000	12.707980
1518.000000	12.728673
1519.000000	12.748967
1520.000000	12.769347
1521.000000	12.789030
1522.000000	12.808293
1523.000000	12.827903
1524.000000	12.847260
1525.000000	12.866473
1526.000000	12.884333
1527.000000	12.902313
1528.000000	12.920070
1529.000000	12.937427
1530.000000	12.954130
1531.000000	12.970027
1532.000000	12.985197
1533.000000	12.999620
1534.000000	13.013813
1535.000000	13.026863
1536.000000	13.039260
1537.000000	13.050753
1538.000000	13.062020
1539.000000	13.072867
1540.000000	13.082070
1541.000000	13.091270
1542.000000	13.100650
1543.000000	13.108933
1544.000000	13.117453
1545.000000	13.125650
1546.000000	13.134587
1547.000000	13.144823
1548.000000	13.155763
1549.000000	13.168030
1550.000000	13.181913
1551.000000	13.195357
1552.000000	13.209957
1553.000000	13.226020
1554.000000	13.240863
1555.000000	13.256457
1556.000000	13.271863
1557.000000	13.286237
1558.000000	13.298693
1559.000000	13.308403
1560.000000	13.316937
1561.000000	13.325410
1562.000000	13.331097
1563.000000	13.334243
1564.000000	13.336333
1565.000000	13.336187
1566.000000	13.334063
1567.000000	13.330600
1568.000000	13.325377
1569.000000	13.319033
1570.000000	13.311647
1571.000000	13.302930
1572.000000	13.294423
1573.000000	13.285913
1574.000000	13.276780
1575.000000	13.268527
1576.000000	13.261323
1577.000000	13.254187
1578.000000	13.248170
1579.000000	13.244510
1580.000000	13.242657
1581.000000	13.242673
1582.000000	13.243060
1583.000000	13.243563
1584.000000	13.246367
1585.000000	13.251277
1586.000000	13.256913
1587.000000	13.263183
1588.000000	13.271503
1589.000000	13.280200
1590.000000	13.287777
1591.000000	13.294860
1592.000000	13.303427
1593.000000	13.314457
1594.000000	13.325510
1595.000000	13.335463
1596.000000	13.344810
1597.000000	13.355450
1598.000000	13.366947
1599.000000	13.379577
1600.000000	13.393580
1601.000000	13.408593
1602.000000	13.424420
1603.000000	13.439530
1604.000000	13.455497
1605.000000	13.472493
1606.000000	13.490243
1607.000000	13.508603
1608.000000	13.526150
1609.000000	13.542587
1610.000000	13.558360
1611.000000	13.573230
1612.000000	13.586627
1613.000000	13.600247
1614.000000	13.612733
1615.000000	13.622853
1616.000000	13.633200
1617.000000	13.642060
1618.000000	13.650337
1619.000000	13.658243
1620.000000	13.666783
1621.000000	13.674910
1622.000000	13.682630
1623.000000	13.689070
1624.000000	13.695393
1625.000000	13.702550
1626.000000	13.709197
1627.000000	13.717007
1628.000000	13.724417
1629.000000	13.732440
1630.000000	13.739183
1631.000000	13.746663
1632.000000	13.755153
1633.000000	13.764037
1634.000000	13.772620
1635.000000	13.781607
1636.000000	13.790347
1637.000000	13.797073
1638.000000	13.803150
1639.000000	13.808613
1640.000000	13.814743
1641.000000	13.819130
1642.000000	13.821983
1643.000000	13.824443
1644.000000	13.826997
1645.000000	13.828723
1646.000000	13.830057
1647.000000	13.832130
1648.000000	13.834620
1649.000000	13.835543
1650.000000	13.835267
1651.000000	13.836770
1652.000000	13.837057
1653.000000	13.835727
1654.000000	13.831440
1655.000000	13.826443
1656.000000	13.819497
1657.000000	13.811273
1658.000000	13.799420
1659.000000	13.785837
1660.000000	13.768237
1661.000000	13.746553
1662.000000	13.723437
1663.000000	13.697867
1664.000000	13.669690
1665.000000	13.637527
1666.000000	13.602623
1667.000000	13.564120
1668.000000	13.519383
1669.000000	13.471657
1670.000000	13.422693
1671.000000	13.370943
1672.000000	13.315543
1673.000000	13.258333
1674.000000	13.200423
1675.000000	13.141970
1676.000000	13.083363
1677.000000	13.023783
1678.000000	12.968077
1679.000000	12.911653
1680.000000	12.855973
1681.000000	12.798070
1682.000000	12.739880
1683.000000	12.680500
1684.000000	12.618887
1685.000000	12.557437
1686.000000	12.496173
1687.000000	12.437383
1688.000000	12.381710
1689.000000	12.331457
1690.000000	12.286333
1691.000000	12.250290
1692.000000	12.224227
1693.000000	12.206800
1694.000000	12.199767
1695.000000	12.199100
1696.000000	12.204917
1697.000000	12.214117
1698.000000	12.225583
1699.000000	12.239413
1700.000000	12.253550
1701.000000	12.266120
1702.000000	12.274317
1703.000000	12.280330
1704.000000	12.282497
1705.000000	12.281523
1706.000000	12.277610
1707.000000	12.270237
1708.000000	12.261843
1709.000000	12.247207
1710.000000	12.228987
1711.000000	12.206957
1712.000000	12.181623
1713.000000	12.151377
1714.000000	12.116530
1715.000000	12.078130
1716.000000	12.034773
1717.000000	11.986637
1718.000000	11.934510
1719.000000	11.879587
1720.000000	11.821910
1721.000000	11.764767
1722.000000	11.708530
1723.000000	11.653653
1724.000000	11.604303
1725.000000	11.560100
1726.000000	11.523140
1727.000000	11.494433
1728.000000	11.472027
1729.000000	11.458287
1730.000000	11.452673
1731.000000	11.450010
1732.000000	11.452977
1733.000000	11.462427
1734.000000	11.473013
1735.000000	11.488147
1736.000000	11.502460
1737.000000	11.518097
1738.000000	11.536527
1739.000000	11.556713
1740.000000	11.577063
1741.000000	11.599867
1742.000000	11.623573
1743.000000	11.648257
1744.000000	11.673923
1745.000000	11.697640
1746.000000	11.723393
1747.000000	11.749580
1748.000000	11.774230
1749.000000	11.797347
1750.000000	11.819593
1751.000000	11.841207
1752.000000	11.861203
1753.000000	11.877303
1754.000000	11.890803
1755.000000	11.901827
1756.000000	11.910907
1757.000000	11.919553
1758.000000	11.925533
1759.000000	11.929210
1760.000000	11.932570
1761.000000	11.934467
1762.000000	11.935837
1763.000000	11.937800
1764.000000	11.939733
1765.000000	11.943513
1766.000000	11.948287
1767.000000	11.952383
1768.000000	11.958913
1769.000000	11.967590
1770.000000	11.976043
1771.000000	11.986317
1772.000000	11.997580
1773.000000	12.009313
1774.000000	12.022933
1775.000000	12.037363
1776.000000	12.051230
1777.000000	12.066190
1778.000000	12.080640
1779.000000	12.095293
1780.000000	12.110583
1781.000000	12.125180
1782.000000	12.138350
1783.000000	12.150940
1784.000000	12.163000
1785.000000	12.173237
1786.000000	12.182287
1787.000000	12.188763
1788.000000	12.192987
1789.000000	12.195570
1790.000000	12.196860
1791.000000	12.197120
1792.000000	12.196940
1793.000000	12.196570
1794.000000	12.195920
1795.000000	12.195147
1796.000000	12.195167
1797.000000	12.196667
1798.000000	12.198263
1799.000000	12.198397
1800.000000	12.197510
1801.000000	12.198350
1802.000000	12.201887
1803.000000	12.205667
1804.000000	12.207550
1805.000000	12.208457
1806.000000	12.210313
1807.000000	12.212977
1808.000000	12.216317
1809.000000	12.219050
1810.000000	12.220683
1811.000000	12.221563
1812.000000	12.222323
1813.000000	12.223747
1814.000000	12.226193
1815.000000	12.229717
1816.000000	12.232243
1817.000000	12.231257
1818.000000	12.224590
1819.000000	12.214947
1820.000000	12.209790
1821.000000	12.214450
1822.000000	12.225203
1823.000000	12.231953
1824.000000	12.229307
1825.000000	12.219740
1826.000000	12.208267
1827.000000	12.199737
1828.000000	12.199473
1829.000000	12.206107
1830.000000	12.211770
1831.000000	12.211440
1832.000000	12.203460
1833.000000	12.193690
1834.000000	12.186837
1835.000000	12.183020
1836.000000	12.183700
1837.000000	12.188813
1838.000000	12.195483
1839.000000	12.201010
1840.000000	12.206193
1841.000000	12.212973
1842.000000	12.228087
1843.000000	12.250833
1844.000000	12.271733
1845.000000	12.280620
1846.000000	12.275183
1847.000000	12.268103
1848.000000	12.273543
1849.000000	12.292540
1850.000000	12.310657
1851.000000	12.312070
1852.000000	12.293903
1853.000000	12.270133
1854.000000	12.257617
1855.000000	12.263123
1856.000000	12.279233
1857.000000	12.285963
1858.000000	12.270963
1859.000000	12.243947
1860.000000	12.220807
1861.000000	12.210090
1862.000000	12.207740
1863.000000	12.202003
1864.000000	12.183843
1865.000000	12.151970
1866.000000	12.111017
1867.000000	12.067670
1868.000000	12.024477
1869.000000	11.974613
1870.000000	11.921223
1871.000000	11.870353
1872.000000	11.821673
1873.000000	11.780017
1874.000000	11.748260
1875.000000	11.722523
1876.000000	11.702050
1877.000000	11.682390
1878.000000	11.658920
1879.000000	11.628937
1880.000000	11.585897
1881.000000	11.524590
1882.000000	11.451507
1883.000000	11.368073
1884.000000	11.275750
1885.000000	11.177337
1886.000000	11.071227
1887.000000	10.958523
1888.000000	10.837397
1889.000000	10.709400
1890.000000	10.578627
1891.000000	10.448677
1892.000000	10.316773
1893.000000	10.181853
1894.000000	10.039537
1895.000000	9.887587
1896.000000	9.726727
1897.000000	9.558290
1898.000000	9.388980
1899.000000	9.222257
1900.000000	9.058953
1901.000000	8.895783
1902.000000	8.730790
1903.000000	8.560677
1904.000000	8.391983
1905.000000	8.233650
1906.000000	8.088300
1907.000000	7.953637
1908.000000	7.825717
1909.000000	7.700040
1910.000000	7.570607
1911.000000	7.441490
1912.000000	7.318017
1913.000000	7.206303
1914.000000	7.106090
1915.000000	7.009357
1916.000000	6.913220
1917.000000	6.817487
1918.000000	6.723753
1919.000000	6.635443
1920.000000	6.558307
1921.000000	6.491613
1922.000000	6.430993
1923.000000	6.374317
1924.000000	6.317323
1925.000000	6.261223
1926.000000	6.207877
1927.000000	6.162277
1928.000000	6.124883
1929.000000	6.094253
1930.000000	6.066167
1931.000000	6.039867
1932.000000	6.014670
1933.000000	5.989853
1934.000000	5.967280
1935.000000	5.948150
1936.000000	5.933433
1937.000000	5.921750
1938.000000	5.912810
1939.000000	5.904990
1940.000000	5.901670
1941.000000	5.899597
1942.000000	5.900700
1943.000000	5.903457
1944.000000	5.909517
1945.000000	5.919363
1946.000000	5.931870
1947.000000	5.945133
1948.000000	5.959083
1949.000000	5.974797
1950.000000	5.989563
1951.000000	6.005020
1952.000000	6.020627
1953.000000	6.037710
1954.000000	6.057510
1955.000000	6.079440
1956.000000	6.099943
1957.000000	6.122323
1958.000000	6.143367
1959.000000	6.163953
1960.000000	6.186053
1961.000000	6.209973
1962.000000	6.234723
1963.000000	6.259867
1964.000000	6.283057
1965.000000	6.305750
1966.000000	6.329130
1967.000000	6.351213
1968.000000	6.375317
1969.000000	6.397947
1970.000000	6.419593
1971.000000	6.441480
1972.000000	6.462380
1973.000000	6.484533
1974.000000	6.507213
1975.000000	6.528827
1976.000000	6.551697
1977.000000	6.573877
1978.000000	6.594497
1979.000000	6.616690
1980.000000	6.639910
1981.000000	6.661883
1982.000000	6.685620
1983.000000	6.707533
1984.000000	6.729220
1985.000000	6.751457
1986.000000	6.774670
1987.000000	6.797703
1988.000000	6.822947
1989.000000	6.847907
1990.000000	6.871433
1991.000000	6.895860
1992.000000	6.918620
1993.000000	6.943727
1994.000000	6.967863
1995.000000	6.991357
1996.000000	7.011837
1997.000000	7.032510
1998.000000	7.051080
1999.000000	7.069967
2000.000000	7.088247
2001.000000	7.104427
2002.000000	7.122277
2003.000000	7.137870
2004.000000	7.151553
2005.000000	7.165303
2006.000000	7.179490
2007.000000	7.192847
2008.000000	7.203893
2009.000000	7.212243
2010.000000	7.220767
2011.000000	7.228330
2012.000000	7.232210
2013.000000	7.234213
2014.000000	7.234960
2015.000000	7.233487
2016.000000	7.230927
2017.000000	7.225567
2018.000000	7.220077
2019.000000	7.213780
2020.000000	7.204707
2021.000000	7.193547
2022.000000	7.181513
2023.000000	7.166953
2024.000000	7.151783
2025.000000	7.134900
2026.000000	7.116010
2027.000000	7.096683
2028.000000	7.074447
2029.000000	7.051513
2030.000000	7.027070
2031.000000	7.000670
2032.000000	6.971480
2033.000000	6.942723
2034.000000	6.912947
2035.000000	6.880847
2036.000000	6.847113
2037.000000	6.811377
2038.000000	6.774740
2039.000000	6.734903
2040.000000	6.694520
2041.000000	6.653283
2042.000000	6.610933
2043.000000	6.567257
2044.000000	6.521813
2045.000000	6.475523
2046.000000	6.427967
2047.000000	6.380980
2048.000000	6.334950
2049.000000	6.292103
2050.000000	6.248723
2051.000000	6.207527
2052.000000	6.170037
2053.000000	6.134580
2054.000000	6.104033
2055.000000	6.078590
2056.000000	6.057567
2057.000000	6.041820
2058.000000	6.030510
2059.000000	6.023163
2060.000000	6.021487
2061.000000	6.024493
2062.000000	6.031330
2063.000000	6.042143
2064.000000	6.056283
2065.000000	6.072763
2066.000000	6.091093
2067.000000	6.110773
2068.000000	6.132150
2069.000000	6.154870
2070.000000	6.178020
2071.000000	6.200503
2072.000000	6.223437
2073.000000	6.246140
2074.000000	6.266390
2075.000000	6.286907
2076.000000	6.307527
2077.000000	6.325973
2078.000000	6.342833
2079.000000	6.358073
2080.000000	6.371330
2081.000000	6.382750
2082.000000	6.392293
2083.000000	6.399753
2084.000000	6.405610
2085.000000	6.409673
2086.000000	6.411873
2087.000000	6.412180
2088.000000	6.411123
2089.000000	6.407360
2090.000000	6.402680
2091.000000	6.397830
2092.000000	6.390113
2093.000000	6.381297
2094.000000	6.373470
2095.000000	6.364143
2096.000000	6.353573
2097.000000	6.343327
2098.000000	6.333143
2099.000000	6.324167
2100.000000	6.314487
2101.000000	6.304307
2102.000000	6.296303
2103.000000	6.288907
2104.000000	6.280447
2105.000000	6.272180
2106.000000	6.263797
2107.000000	6.255567
2108.000000	6.247350
2109.000000	6.239043
2110.000000	6.231737
2111.000000	6.223863
2112.000000	6.214760
2113.000000	6.205827
2114.000000	6.196300
2115.000000	6.186357
2116.000000	6.175103
2117.000000	6.162887
2118.000000	6.151337
2119.000000	6.139043
2120.000000	6.124710
2121.000000	6.110047
2122.000000	6.095263
2123.000000	6.079523
2124.000000	6.064033
2125.000000	6.047880
2126.000000	6.032207
2127.000000	6.015597
2128.000000	5.996017
2129.000000	5.975827
2130.000000	5.956440
2131.000000	5.937307
2132.000000	5.916243
2133.000000	5.893670
2134.000000	5.869127
2135.000000	5.844307
2136.000000	5.819163
2137.000000	5.794723
2138.000000	5.769993
2139.000000	5.744000
2140.000000	5.717370
2141.000000	5.689660
2142.000000	5.662337
2143.000000	5.634230
2144.000000	5.607027
2145.000000	5.579913
2146.000000	5.551557
2147.000000	5.522100
2148.000000	5.493287
2149.000000	5.464297
2150.000000	5.433447
2151.000000	5.402663
2152.000000	5.372407
2153.000000	5.342253
2154.000000	5.311433
2155.000000	5.280760
2156.000000	5.251953
2157.000000	5.224443
2158.000000	5.196833
2159.000000	5.170807
2160.000000	5.146317
2161.000000	5.122987
2162.000000	5.100717
2163.000000	5.080680
2164.000000	5.061667
2165.000000	5.043320
2166.000000	5.026270
2167.000000	5.010237
2168.000000	4.994423
2169.000000	4.979600
2170.000000	4.966403
2171.000000	4.955153
2172.000000	4.942050
2173.000000	4.930010
2174.000000	4.918850
2175.000000	4.908340
2176.000000	4.897853
2177.000000	4.887873
2178.000000	4.878430
2179.000000	4.868007
2180.000000	4.857653
2181.000000	4.845893
2182.000000	4.836767
2183.000000	4.825113
2184.000000	4.811717
2185.000000	4.796457
2186.000000	4.779860
2187.000000	4.761290
2188.000000	4.740913
2189.000000	4.718817
2190.000000	4.693083
2191.000000	4.664387
2192.000000	4.630970
2193.000000	4.595810
2194.000000	4.557727
2195.000000	4.515880
2196.000000	4.470377
2197.000000	4.421403
2198.000000	4.370533
2199.000000	4.317233
2200.000000	4.263270
2201.000000	4.207060
2202.000000	4.152457
2203.000000	4.096873
2204.000000	4.042833
2205.000000	3.993273
2206.000000	3.946270
2207.000000	3.904450
2208.000000	3.866317
2209.000000	3.832853
2210.000000	3.805597
2211.000000	3.784943
2212.000000	3.768587
2213.000000	3.759940
2214.000000	3.758963
2215.000000	3.762083
2216.000000	3.770470
2217.000000	3.782753
2218.000000	3.799303
2219.000000	3.821663
2220.000000	3.845327
2221.000000	3.872333
2222.000000	3.902360
2223.000000	3.933337
2224.000000	3.963313
2225.000000	3.992827
2226.000000	4.023473
2227.000000	4.052827
2228.000000	4.081907
2229.000000	4.106450
2230.000000	4.131427
2231.000000	4.154073
2232.000000	4.173600
2233.000000	4.191120
2234.000000	4.204313
2235.000000	4.215923
2236.000000	4.224510
2237.000000	4.230993
2238.000000	4.235567
2239.000000	4.238720
2240.000000	4.235360
2241.000000	4.229907
2242.000000	4.223003
2243.000000	4.214030
2244.000000	4.203613
2245.000000	4.190793
2246.000000	4.175743
2247.000000	4.159907
2248.000000	4.141630
2249.000000	4.120810
2250.000000	4.102770
2251.000000	4.082653
2252.000000	4.062437
2253.000000	4.041850
2254.000000	4.021110
2255.000000	3.999620
2256.000000	3.978740
2257.000000	3.957543
2258.000000	3.937530
2259.000000	3.920667
2260.000000	3.901783
2261.000000	3.885317
2262.000000	3.870623
2263.000000	3.856383
2264.000000	3.844053
2265.000000	3.835087
2266.000000	3.828043
2267.000000	3.822283
2268.000000	3.816570
2269.000000	3.813523
2270.000000	3.813773
2271.000000	3.815313
2272.000000	3.815920
2273.000000	3.819753
2274.000000	3.823967
2275.000000	3.827950
2276.000000	3.832037
2277.000000	3.836400
2278.000000	3.841830
2279.000000	3.845330
2280.000000	3.849083
2281.000000	3.852907
2282.000000	3.857400
2283.000000	3.860223
2284.000000	3.864853
2285.000000	3.869080
2286.000000	3.873347
2287.000000	3.877110
2288.000000	3.880170
2289.000000	3.883477
2290.000000	3.887477
2291.000000	3.890960
2292.000000	3.893700
2293.000000	3.896183
2294.000000	3.899583
2295.000000	3.902287
2296.000000	3.905467
2297.000000	3.909103
2298.000000	3.913623
2299.000000	3.919563
2300.000000	3.925077
2301.000000	3.930290
2302.000000	3.936680
2303.000000	3.943573
2304.000000	3.950487
2305.000000	3.959057
2306.000000	3.966967
2307.000000	3.976860
2308.000000	3.988610
2309.000000	3.999267
2310.000000	4.009977
2311.000000	4.021697
2312.000000	4.034363
2313.000000	4.046407
2314.000000	4.057857
2315.000000	4.069880
2316.000000	4.081343
2317.000000	4.092047
2318.000000	4.100807
2319.000000	4.109400
2320.000000	4.117277
2321.000000	4.124663
2322.000000	4.129860
2323.000000	4.134907
2324.000000	4.138100
2325.000000	4.140057
2326.000000	4.141670
2327.000000	4.140793
2328.000000	4.139650
2329.000000	4.137770
2330.000000	4.136617
2331.000000	4.134687
2332.000000	4.133677
2333.000000	4.133060
2334.000000	4.132910
2335.000000	4.132507
2336.000000	4.133153
2337.000000	4.134203
2338.000000	4.134973
2339.000000	4.136643
2340.000000	4.138067
2341.000000	4.139467
2342.000000	4.141450
2343.000000	4.142957
2344.000000	4.144980
2345.000000	4.147667
2346.000000	4.150117
2347.000000	4.154803
2348.000000	4.161073
2349.000000	4.166950
2350.000000	4.172867
2351.000000	4.179567
2352.000000	4.185630
2353.000000	4.191620
2354.000000	4.197477
2355.000000	4.202513
2356.000000	4.208027
2357.000000	4.212597
2358.000000	4.215917
2359.000000	4.219197
2360.000000	4.221313
2361.000000	4.223420
2362.000000	4.225660
2363.000000	4.226993
2364.000000	4.228057
2365.000000	4.230227
2366.000000	4.232227
2367.000000	4.233850
2368.000000	4.234907
2369.000000	4.235500
2370.000000	4.236843
2371.000000	4.238197
2372.000000	4.240050
2373.000000	4.242313
2374.000000	4.244453
2375.000000	4.245903
2376.000000	4.247020
2377.000000	4.248387
2378.000000	4.250600
2379.000000	4.252537
2380.000000	4.253563
2381.000000	4.254257
2382.000000	4.254300
2383.000000	4.253923
2384.000000	4.253777
2385.000000	4.253533
2386.000000	4.252903
2387.000000	4.251157
2388.000000	4.248593
2389.000000	4.245910
2390.000000	4.242837
2391.000000	4.239153
2392.000000	4.234210
2393.000000	4.229930
2394.000000	4.224863
2395.000000	4.218933
2396.000000	4.211773
2397.000000	4.204317
2398.000000	4.196017
2399.000000	4.188247
2400.000000	4.180653
2401.000000	4.173047
2402.000000	4.165177
2403.000000	4.155647
2404.000000	4.145317
2405.000000	4.134660
2406.000000	4.124123
2407.000000	4.113323
2408.000000	4.102383
2409.000000	4.090360
2410.000000	4.077553
2411.000000	4.063630
2412.000000	4.049037
2413.000000	4.034450
2414.000000	4.020313
2415.000000	4.005943
2416.000000	3.990510
2417.000000	3.973970
2418.000000	3.956733
2419.000000	3.937693
2420.000000	3.917740
2421.000000	3.897670
2422.000000	3.877813
2423.000000	3.857060
2424.000000	3.835203
2425.000000	3.811690
2426.000000	3.787917
2427.000000	3.764070
2428.000000	3.741110
2429.000000	3.717320
2430.000000	3.694113
2431.000000	3.670180
2432.000000	3.644727
2433.000000	3.619637
2434.000000	3.592987
2435.000000	3.567810
2436.000000	3.543040
2437.000000	3.517417
2438.000000	3.491043
2439.000000	3.466327
2440.000000	3.439863
2441.000000	3.412890
2442.000000	3.387100
2443.000000	3.360957
2444.000000	3.335723
2445.000000	3.309200
2446.000000	3.282773
2447.000000	3.257603
2448.000000	3.230773
2449.000000	3.204583
2450.000000	3.180077
2451.000000	3.155290
2452.000000	3.131250
2453.000000	3.108327
2454.000000	3.085877
2455.000000	3.066307
2456.000000	3.043610
2457.000000	3.022640
2458.000000	3.001920
2459.000000	2.982217
2460.000000	2.961973
2461.000000	2.944710
2462.000000	2.924003
2463.000000	2.904797
2464.000000	2.885097
2465.000000	2.867260
2466.000000	2.851537
2467.000000	2.832503
2468.000000	2.817827
2469.000000	2.803397
2470.000000	2.788223
2471.000000	2.774053
2472.000000	2.762537
2473.000000	2.749593
2474.000000	2.741817
2475.000000	2.731750
2476.000000	2.722850
2477.000000	2.716280
2478.000000	2.710033
2479.000000	2.701597
2480.000000	2.698570
2481.000000	2.694327
2482.000000	2.692153
2483.000000	2.688687
2484.000000	2.683403
2485.000000	2.682483
2486.000000	2.679750
2487.000000	2.679567
2488.000000	2.677117
2489.000000	2.678020
2490.000000	2.681573
2491.000000	2.686307
2492.000000	2.687070
2493.000000	2.687037
2494.000000	2.690760
2495.000000	2.694690
2496.000000	2.701723
2497.000000	2.705990
2498.000000	2.712967
2499.000000	2.720803
2500.000000	2.720023
