PE UV       SUBTECH     SPECTRUM    ASCII       PEDS        4.00        
   -1
BIOUCR0005-3.Sample.ASC
24/02/19
12:33:52.00
24/02/19
12:33:52.00
Vinicio Soto Monge
P. cupreomarginata (sin datos) Monteverde(dudoso)
250,000000
1
Lambda 1050
1050L1511233
PerkinElmer UV WinLab 6.3.2.0749 / 2.02.05 Lambda 900 UV/VIS/NIR, Aug  7 2015 09:38:08

0
0
3350/servo 860,8/2
0
0
UV/VIS
1
1
1
DoubleDePol,CommonBeamDepol,RBeamAtt,SBeamAtt,60mm sphere, WB InGaAs Detector
0
0
0
0
Program
Program
3350/servo 860,8/2
3350/0,2 860,8/0,2
3350/0,2 860,8/0,2
0
15.00
 
 
 
0
 
860,8
319,2
860,8
Front
100
on
S:100 R:100
0
0
0
0
 
0
 
 
 
0
 
 
0
0
0
0
0
 
 
 
 
0
0


0
0
#HDR
-1
-1
#GR
nm
%R
1.0
0.0
2500,000000
-1,000000
2251
8
24,464900
1,688200
#DATA

250.000000	nan
251.000000	nan
252.000000	nan
253.000000	nan
254.000000	nan
255.000000	nan
256.000000	nan
257.000000	nan
258.000000	nan
259.000000	2.171747
260.000000	2.164560
261.000000	2.158247
262.000000	2.152446
263.000000	2.146863
264.000000	2.141763
265.000000	2.134683
266.000000	2.128688
267.000000	2.123852
268.000000	2.118261
269.000000	2.112110
270.000000	2.107850
271.000000	2.102052
272.000000	2.097652
273.000000	2.093695
274.000000	2.087572
275.000000	2.082786
276.000000	2.078986
277.000000	2.074657
278.000000	2.070212
279.000000	2.066534
280.000000	2.062400
281.000000	2.060532
282.000000	2.057595
283.000000	2.053691
284.000000	2.051500
285.000000	2.048799
286.000000	2.045988
287.000000	2.043557
288.000000	2.041240
289.000000	2.037433
290.000000	2.035433
291.000000	2.031516
292.000000	2.027792
293.000000	2.024153
294.000000	2.020009
295.000000	2.018877
296.000000	2.015919
297.000000	2.012786
298.000000	2.008031
299.000000	2.005359
300.000000	2.002350
301.000000	1.999756
302.000000	1.996760
303.000000	1.993682
304.000000	1.991018
305.000000	1.987912
306.000000	1.984303
307.000000	1.980769
308.000000	1.978210
309.000000	1.975834
310.000000	1.972855
311.000000	1.971067
312.000000	1.967727
313.000000	1.964611
314.000000	1.962811
315.000000	1.959873
316.000000	1.957457
317.000000	1.957835
318.000000	1.966451
319.000000	1.971909
320.000000	1.978332
321.000000	1.984899
322.000000	1.991326
323.000000	1.996240
324.000000	1.999055
325.000000	2.005734
326.000000	2.011741
327.000000	2.010318
328.000000	2.001232
329.000000	1.991479
330.000000	1.985551
331.000000	1.979384
332.000000	1.971674
333.000000	1.967140
334.000000	1.959352
335.000000	1.951720
336.000000	1.947268
337.000000	1.944835
338.000000	1.941883
339.000000	1.941862
340.000000	1.939477
341.000000	1.933533
342.000000	1.931795
343.000000	1.929134
344.000000	1.931086
345.000000	1.924437
346.000000	1.917751
347.000000	1.917129
348.000000	1.917731
349.000000	1.915070
350.000000	1.909954
351.000000	1.908008
352.000000	1.907413
353.000000	1.904369
354.000000	1.899841
355.000000	1.900436
356.000000	1.898807
357.000000	1.896225
358.000000	1.888788
359.000000	1.885169
360.000000	1.883582
361.000000	1.881418
362.000000	1.876371
363.000000	1.873325
364.000000	1.869601
365.000000	1.867524
366.000000	1.865948
367.000000	1.863632
368.000000	1.866212
369.000000	1.866366
370.000000	1.864473
371.000000	1.861921
372.000000	1.861415
373.000000	1.858028
374.000000	1.854963
375.000000	1.851523
376.000000	1.844783
377.000000	1.823460
378.000000	1.801132
379.000000	1.781226
380.000000	1.761948
381.000000	1.744401
382.000000	1.727053
383.000000	1.714046
384.000000	1.702700
385.000000	1.691230
386.000000	1.684157
387.000000	1.691671
388.000000	1.699508
389.000000	1.709384
390.000000	1.720935
391.000000	1.733721
392.000000	1.746509
393.000000	1.760308
394.000000	1.775927
395.000000	1.793127
396.000000	1.811832
397.000000	1.832042
398.000000	1.853920
399.000000	1.876028
400.000000	1.899237
401.000000	1.924002
402.000000	1.950505
403.000000	1.978637
404.000000	2.008615
405.000000	2.039247
406.000000	2.070159
407.000000	2.102404
408.000000	2.136328
409.000000	2.171927
410.000000	2.208383
411.000000	2.245745
412.000000	2.284429
413.000000	2.323438
414.000000	2.362004
415.000000	2.401888
416.000000	2.443196
417.000000	2.485356
418.000000	2.527612
419.000000	2.569817
420.000000	2.612267
421.000000	2.655061
422.000000	2.697666
423.000000	2.740089
424.000000	2.782849
425.000000	2.825377
426.000000	2.867203
427.000000	2.908182
428.000000	2.948855
429.000000	2.988687
430.000000	3.027907
431.000000	3.065806
432.000000	3.102091
433.000000	3.137460
434.000000	3.171759
435.000000	3.204077
436.000000	3.234797
437.000000	3.264005
438.000000	3.290896
439.000000	3.315866
440.000000	3.338526
441.000000	3.359076
442.000000	3.378027
443.000000	3.394662
444.000000	3.408592
445.000000	3.421289
446.000000	3.432794
447.000000	3.442350
448.000000	3.450086
449.000000	3.457164
450.000000	3.464584
451.000000	3.472029
452.000000	3.479802
453.000000	3.488771
454.000000	3.499709
455.000000	3.512926
456.000000	3.528703
457.000000	3.548080
458.000000	3.572251
459.000000	3.601064
460.000000	3.634531
461.000000	3.673803
462.000000	3.718423
463.000000	3.769185
464.000000	3.826495
465.000000	3.889032
466.000000	3.956548
467.000000	4.029307
468.000000	4.106284
469.000000	4.186286
470.000000	4.268316
471.000000	4.351800
472.000000	4.436898
473.000000	4.521839
474.000000	4.605399
475.000000	4.687680
476.000000	4.768522
477.000000	4.847179
478.000000	4.923933
479.000000	4.998983
480.000000	5.072126
481.000000	5.142912
482.000000	5.211528
483.000000	5.279285
484.000000	5.347900
485.000000	5.418680
486.000000	5.491857
487.000000	5.568196
488.000000	5.647919
489.000000	5.731583
490.000000	5.819812
491.000000	5.914291
492.000000	6.014663
493.000000	6.120038
494.000000	6.230499
495.000000	6.344953
496.000000	6.463048
497.000000	6.584510
498.000000	6.710145
499.000000	6.839887
500.000000	6.973901
501.000000	7.111907
502.000000	7.253226
503.000000	7.398552
504.000000	7.547706
505.000000	7.700737
506.000000	7.859020
507.000000	8.021752
508.000000	8.187725
509.000000	8.357560
510.000000	8.530701
511.000000	8.706308
512.000000	8.885168
513.000000	9.066765
514.000000	9.250628
515.000000	9.436889
516.000000	9.623076
517.000000	9.810296
518.000000	9.997938
519.000000	10.186131
520.000000	10.374590
521.000000	10.562836
522.000000	10.751060
523.000000	10.940062
524.000000	11.128705
525.000000	11.316642
526.000000	11.504846
527.000000	11.692072
528.000000	11.877792
529.000000	12.061274
530.000000	12.243636
531.000000	12.423647
532.000000	12.601349
533.000000	12.775284
534.000000	12.944771
535.000000	13.109896
536.000000	13.270619
537.000000	13.427429
538.000000	13.579937
539.000000	13.728170
540.000000	13.871195
541.000000	14.008970
542.000000	14.142122
543.000000	14.270408
544.000000	14.394639
545.000000	14.515064
546.000000	14.630592
547.000000	14.741116
548.000000	14.847365
549.000000	14.949223
550.000000	15.046379
551.000000	15.140081
552.000000	15.228653
553.000000	15.313970
554.000000	15.394934
555.000000	15.469614
556.000000	15.541107
557.000000	15.609645
558.000000	15.674528
559.000000	15.734220
560.000000	15.747802
561.000000	15.750891
562.000000	15.748147
563.000000	15.740404
564.000000	15.727031
565.000000	15.710168
566.000000	15.688284
567.000000	15.662282
568.000000	15.631789
569.000000	15.598180
570.000000	15.602956
571.000000	15.609366
572.000000	15.614134
573.000000	15.614800
574.000000	15.615592
575.000000	15.615305
576.000000	15.613238
577.000000	15.608748
578.000000	15.601500
579.000000	15.591835
580.000000	15.578645
581.000000	15.560469
582.000000	15.535895
583.000000	15.504668
584.000000	15.462983
585.000000	15.410263
586.000000	15.346814
587.000000	15.272864
588.000000	15.191952
589.000000	15.100790
590.000000	15.000136
591.000000	14.892907
592.000000	14.779242
593.000000	14.660666
594.000000	14.539859
595.000000	14.418145
596.000000	14.295879
597.000000	14.172717
598.000000	14.049016
599.000000	13.925690
600.000000	13.804891
601.000000	13.685312
602.000000	13.566764
603.000000	13.449664
604.000000	13.333353
605.000000	13.219255
606.000000	13.106256
607.000000	12.995121
608.000000	12.885642
609.000000	12.781124
610.000000	12.681211
611.000000	12.587986
612.000000	12.502666
613.000000	12.427383
614.000000	12.363992
615.000000	12.311044
616.000000	12.270459
617.000000	12.243712
618.000000	12.229329
619.000000	12.226700
620.000000	12.236748
621.000000	12.259971
622.000000	12.293895
623.000000	12.339444
624.000000	12.393846
625.000000	12.456980
626.000000	12.529637
627.000000	12.611146
628.000000	12.701552
629.000000	12.799960
630.000000	12.904723
631.000000	13.015417
632.000000	13.133640
633.000000	13.255908
634.000000	13.382239
635.000000	13.512565
636.000000	13.643562
637.000000	13.772516
638.000000	13.899481
639.000000	14.023510
640.000000	14.142916
641.000000	14.255283
642.000000	14.360386
643.000000	14.456582
644.000000	14.541902
645.000000	14.615796
646.000000	14.679448
647.000000	14.733232
648.000000	14.777900
649.000000	14.811432
650.000000	14.834424
651.000000	14.847033
652.000000	14.850379
653.000000	14.847413
654.000000	14.837851
655.000000	14.823859
656.000000	14.806587
657.000000	14.787469
658.000000	14.765164
659.000000	14.744406
660.000000	14.727030
661.000000	14.714025
662.000000	14.706882
663.000000	14.705145
664.000000	14.710319
665.000000	14.722649
666.000000	14.743381
667.000000	14.770825
668.000000	14.807257
669.000000	14.851903
670.000000	14.905050
671.000000	14.966045
672.000000	15.032897
673.000000	15.104215
674.000000	15.182412
675.000000	15.267668
676.000000	15.356561
677.000000	15.448862
678.000000	15.541858
679.000000	15.634824
680.000000	15.726243
681.000000	15.817444
682.000000	15.907835
683.000000	15.997170
684.000000	16.081853
685.000000	16.160993
686.000000	16.235085
687.000000	16.303441
688.000000	16.369045
689.000000	16.432441
690.000000	16.493721
691.000000	16.550976
692.000000	16.604680
693.000000	16.656584
694.000000	16.709035
695.000000	16.762658
696.000000	16.819973
697.000000	16.883145
698.000000	16.949081
699.000000	17.020956
700.000000	17.098766
701.000000	17.185124
702.000000	17.282041
703.000000	17.388298
704.000000	17.505096
705.000000	17.632231
706.000000	17.767346
707.000000	17.911574
708.000000	18.065430
709.000000	18.226533
710.000000	18.393896
711.000000	18.565573
712.000000	18.740685
713.000000	18.919467
714.000000	19.099117
715.000000	19.277786
716.000000	19.455964
717.000000	19.630951
718.000000	19.803637
719.000000	19.970777
720.000000	20.133072
721.000000	20.291102
722.000000	20.442946
723.000000	20.586909
724.000000	20.724462
725.000000	20.855573
726.000000	20.980205
727.000000	21.098161
728.000000	21.208564
729.000000	21.314423
730.000000	21.413934
731.000000	21.506229
732.000000	21.594367
733.000000	21.679943
734.000000	21.760949
735.000000	21.839371
736.000000	21.913021
737.000000	21.984760
738.000000	22.054820
739.000000	22.122009
740.000000	22.186516
741.000000	22.249188
742.000000	22.309568
743.000000	22.366768
744.000000	22.421642
745.000000	22.473496
746.000000	22.525600
747.000000	22.576192
748.000000	22.624492
749.000000	22.669736
750.000000	22.715271
751.000000	22.760828
752.000000	22.806041
753.000000	22.849888
754.000000	22.890878
755.000000	22.930990
756.000000	22.968006
757.000000	22.999863
758.000000	23.030776
759.000000	23.062365
760.000000	23.092042
761.000000	23.117686
762.000000	23.138631
763.000000	23.158182
764.000000	23.180004
765.000000	23.199660
766.000000	23.218622
767.000000	23.240734
768.000000	23.263061
769.000000	23.283114
770.000000	23.301922
771.000000	23.320114
772.000000	23.336177
773.000000	23.351192
774.000000	23.363209
775.000000	23.373076
776.000000	23.383365
777.000000	23.389470
778.000000	23.389543
779.000000	23.388614
780.000000	23.386610
781.000000	23.381670
782.000000	23.376928
783.000000	23.370670
784.000000	23.361526
785.000000	23.353741
786.000000	23.345354
787.000000	23.335454
788.000000	23.329756
789.000000	23.319360
790.000000	23.306609
791.000000	23.293831
792.000000	23.284134
793.000000	23.272399
794.000000	23.259197
795.000000	23.240430
796.000000	23.216251
797.000000	23.192202
798.000000	23.165169
799.000000	23.137939
800.000000	23.108249
801.000000	23.076784
802.000000	23.039821
803.000000	23.003711
804.000000	22.968620
805.000000	22.931728
806.000000	22.895658
807.000000	22.858831
808.000000	22.821679
809.000000	22.785700
810.000000	22.750004
811.000000	22.713721
812.000000	22.673744
813.000000	22.628255
814.000000	22.578215
815.000000	22.526761
816.000000	22.470089
817.000000	22.409551
818.000000	22.342946
819.000000	22.270660
820.000000	22.192398
821.000000	22.109610
822.000000	22.023214
823.000000	21.937880
824.000000	21.847591
825.000000	21.756515
826.000000	21.669017
827.000000	21.569625
828.000000	21.461319
829.000000	21.349021
830.000000	21.238286
831.000000	21.124204
832.000000	21.008085
833.000000	20.881992
834.000000	20.753188
835.000000	20.627825
836.000000	20.488469
837.000000	20.354762
838.000000	20.224574
839.000000	20.095602
840.000000	19.964450
841.000000	19.833148
842.000000	19.700070
843.000000	19.574135
844.000000	19.454914
845.000000	19.333253
846.000000	19.217818
847.000000	19.107440
848.000000	19.000362
849.000000	18.901904
850.000000	18.806424
851.000000	18.705348
852.000000	18.628949
853.000000	18.542318
854.000000	18.455603
855.000000	18.376438
856.000000	18.310833
857.000000	18.256685
858.000000	18.304779
859.000000	18.304574
860.000000	18.310632
861.000000	18.336889
862.000000	18.357197
863.000000	18.400238
864.000000	18.453348
865.000000	18.507504
866.000000	18.562801
867.000000	18.615770
868.000000	18.577000
869.000000	18.588880
870.000000	18.602167
871.000000	18.612863
872.000000	18.619290
873.000000	18.621760
874.000000	18.621110
875.000000	18.619187
876.000000	18.614220
877.000000	18.608347
878.000000	18.601787
879.000000	18.592947
880.000000	18.583370
881.000000	18.574977
882.000000	18.566043
883.000000	18.554770
884.000000	18.544937
885.000000	18.534693
886.000000	18.523393
887.000000	18.512463
888.000000	18.499190
889.000000	18.488720
890.000000	18.477353
891.000000	18.465847
892.000000	18.454393
893.000000	18.444303
894.000000	18.433280
895.000000	18.421993
896.000000	18.412913
897.000000	18.401777
898.000000	18.392457
899.000000	18.382057
900.000000	18.372117
901.000000	18.362630
902.000000	18.353433
903.000000	18.345473
904.000000	18.334383
905.000000	18.324483
906.000000	18.313283
907.000000	18.301800
908.000000	18.292250
909.000000	18.283660
910.000000	18.276220
911.000000	18.266450
912.000000	18.257187
913.000000	18.247693
914.000000	18.241997
915.000000	18.233843
916.000000	18.226200
917.000000	18.219830
918.000000	18.209277
919.000000	18.198527
920.000000	18.187433
921.000000	18.176090
922.000000	18.162217
923.000000	18.146127
924.000000	18.129147
925.000000	18.112657
926.000000	18.093613
927.000000	18.074027
928.000000	18.055160
929.000000	18.034747
930.000000	18.013723
931.000000	17.993760
932.000000	17.972840
933.000000	17.954283
934.000000	17.936117
935.000000	17.920233
936.000000	17.906490
937.000000	17.892253
938.000000	17.877520
939.000000	17.862270
940.000000	17.847393
941.000000	17.830963
942.000000	17.817093
943.000000	17.801753
944.000000	17.786220
945.000000	17.770343
946.000000	17.754017
947.000000	17.738093
948.000000	17.725203
949.000000	17.716593
950.000000	17.708763
951.000000	17.702963
952.000000	17.697657
953.000000	17.692957
954.000000	17.688673
955.000000	17.683960
956.000000	17.680237
957.000000	17.677650
958.000000	17.674617
959.000000	17.669853
960.000000	17.664053
961.000000	17.658530
962.000000	17.653733
963.000000	17.648567
964.000000	17.644147
965.000000	17.641167
966.000000	17.638477
967.000000	17.636007
968.000000	17.633277
969.000000	17.630940
970.000000	17.629843
971.000000	17.629647
972.000000	17.630070
973.000000	17.630620
974.000000	17.631130
975.000000	17.632280
976.000000	17.633580
977.000000	17.635173
978.000000	17.639547
979.000000	17.642927
980.000000	17.645183
981.000000	17.648140
982.000000	17.651380
983.000000	17.656550
984.000000	17.661987
985.000000	17.665560
986.000000	17.670340
987.000000	17.676670
988.000000	17.681593
989.000000	17.688190
990.000000	17.697697
991.000000	17.707900
992.000000	17.717553
993.000000	17.727930
994.000000	17.738383
995.000000	17.749327
996.000000	17.760077
997.000000	17.769867
998.000000	17.780500
999.000000	17.792853
1000.000000	17.803593
1001.000000	17.814183
1002.000000	17.825493
1003.000000	17.835827
1004.000000	17.846597
1005.000000	17.858627
1006.000000	17.871480
1007.000000	17.885530
1008.000000	17.899237
1009.000000	17.910937
1010.000000	17.924640
1011.000000	17.939017
1012.000000	17.953117
1013.000000	17.967763
1014.000000	17.982523
1015.000000	17.998170
1016.000000	18.014707
1017.000000	18.029880
1018.000000	18.044677
1019.000000	18.060233
1020.000000	18.074943
1021.000000	18.090420
1022.000000	18.107183
1023.000000	18.125377
1024.000000	18.144623
1025.000000	18.163237
1026.000000	18.181593
1027.000000	18.201467
1028.000000	18.222643
1029.000000	18.243640
1030.000000	18.263630
1031.000000	18.283093
1032.000000	18.302980
1033.000000	18.322653
1034.000000	18.342303
1035.000000	18.362290
1036.000000	18.382160
1037.000000	18.400923
1038.000000	18.419777
1039.000000	18.439870
1040.000000	18.461067
1041.000000	18.482167
1042.000000	18.501410
1043.000000	18.519663
1044.000000	18.538857
1045.000000	18.557793
1046.000000	18.575620
1047.000000	18.594413
1048.000000	18.612887
1049.000000	18.629553
1050.000000	18.645997
1051.000000	18.662357
1052.000000	18.679797
1053.000000	18.698703
1054.000000	18.716987
1055.000000	18.735523
1056.000000	18.755927
1057.000000	18.776410
1058.000000	18.796637
1059.000000	18.817660
1060.000000	18.838833
1061.000000	18.859817
1062.000000	18.880803
1063.000000	18.900733
1064.000000	18.919773
1065.000000	18.937377
1066.000000	18.953240
1067.000000	18.969897
1068.000000	18.988097
1069.000000	19.006853
1070.000000	19.025487
1071.000000	19.044793
1072.000000	19.064257
1073.000000	19.084167
1074.000000	19.104103
1075.000000	19.124350
1076.000000	19.144997
1077.000000	19.165210
1078.000000	19.183777
1079.000000	19.201843
1080.000000	19.219563
1081.000000	19.235897
1082.000000	19.251293
1083.000000	19.266520
1084.000000	19.282150
1085.000000	19.297923
1086.000000	19.312833
1087.000000	19.327407
1088.000000	19.341930
1089.000000	19.356543
1090.000000	19.370393
1091.000000	19.384383
1092.000000	19.398830
1093.000000	19.412837
1094.000000	19.425703
1095.000000	19.438733
1096.000000	19.451233
1097.000000	19.463250
1098.000000	19.474577
1099.000000	19.485777
1100.000000	19.496030
1101.000000	19.507003
1102.000000	19.517607
1103.000000	19.527943
1104.000000	19.539717
1105.000000	19.550733
1106.000000	19.561593
1107.000000	19.571283
1108.000000	19.581060
1109.000000	19.589417
1110.000000	19.598967
1111.000000	19.608890
1112.000000	19.617410
1113.000000	19.624593
1114.000000	19.630227
1115.000000	19.636423
1116.000000	19.643050
1117.000000	19.650283
1118.000000	19.656473
1119.000000	19.661590
1120.000000	19.666660
1121.000000	19.668653
1122.000000	19.671097
1123.000000	19.672537
1124.000000	19.672843
1125.000000	19.671200
1126.000000	19.667840
1127.000000	19.661473
1128.000000	19.654547
1129.000000	19.646117
1130.000000	19.635583
1131.000000	19.622967
1132.000000	19.604457
1133.000000	19.583910
1134.000000	19.563017
1135.000000	19.542197
1136.000000	19.519073
1137.000000	19.494263
1138.000000	19.464647
1139.000000	19.434313
1140.000000	19.403823
1141.000000	19.373517
1142.000000	19.346580
1143.000000	19.320143
1144.000000	19.293370
1145.000000	19.265460
1146.000000	19.239650
1147.000000	19.217030
1148.000000	19.198107
1149.000000	19.180130
1150.000000	19.161417
1151.000000	19.145137
1152.000000	19.128690
1153.000000	19.113283
1154.000000	19.097323
1155.000000	19.080327
1156.000000	19.059590
1157.000000	19.035350
1158.000000	19.009030
1159.000000	18.981910
1160.000000	18.951907
1161.000000	18.918027
1162.000000	18.881767
1163.000000	18.841397
1164.000000	18.796677
1165.000000	18.750537
1166.000000	18.704323
1167.000000	18.658473
1168.000000	18.611513
1169.000000	18.562210
1170.000000	18.514493
1171.000000	18.467973
1172.000000	18.423773
1173.000000	18.382740
1174.000000	18.344590
1175.000000	18.308577
1176.000000	18.276427
1177.000000	18.245450
1178.000000	18.218780
1179.000000	18.195337
1180.000000	18.172367
1181.000000	18.151443
1182.000000	18.130777
1183.000000	18.109917
1184.000000	18.092417
1185.000000	18.075083
1186.000000	18.060337
1187.000000	18.048550
1188.000000	18.037700
1189.000000	18.030487
1190.000000	18.027583
1191.000000	18.028527
1192.000000	18.033033
1193.000000	18.042560
1194.000000	18.055787
1195.000000	18.073797
1196.000000	18.092143
1197.000000	18.112853
1198.000000	18.134737
1199.000000	18.158820
1200.000000	18.183580
1201.000000	18.207903
1202.000000	18.233340
1203.000000	18.258880
1204.000000	18.283700
1205.000000	18.307790
1206.000000	18.332373
1207.000000	18.356117
1208.000000	18.380173
1209.000000	18.403217
1210.000000	18.427273
1211.000000	18.452403
1212.000000	18.477123
1213.000000	18.500097
1214.000000	18.522543
1215.000000	18.544673
1216.000000	18.565557
1217.000000	18.586950
1218.000000	18.607233
1219.000000	18.625830
1220.000000	18.643460
1221.000000	18.659473
1222.000000	18.673747
1223.000000	18.688183
1224.000000	18.700243
1225.000000	18.711150
1226.000000	18.722043
1227.000000	18.731837
1228.000000	18.741983
1229.000000	18.751460
1230.000000	18.759063
1231.000000	18.766067
1232.000000	18.773107
1233.000000	18.779367
1234.000000	18.785137
1235.000000	18.790123
1236.000000	18.794540
1237.000000	18.798060
1238.000000	18.800077
1239.000000	18.801963
1240.000000	18.804913
1241.000000	18.807677
1242.000000	18.811360
1243.000000	18.815520
1244.000000	18.822350
1245.000000	18.831393
1246.000000	18.841430
1247.000000	18.852623
1248.000000	18.866983
1249.000000	18.882700
1250.000000	18.899923
1251.000000	18.918540
1252.000000	18.936547
1253.000000	18.955190
1254.000000	18.971100
1255.000000	18.985327
1256.000000	19.000533
1257.000000	19.015427
1258.000000	19.027510
1259.000000	19.039347
1260.000000	19.049280
1261.000000	19.057210
1262.000000	19.065037
1263.000000	19.072000
1264.000000	19.079640
1265.000000	19.088767
1266.000000	19.095450
1267.000000	19.100517
1268.000000	19.105213
1269.000000	19.108750
1270.000000	19.111110
1271.000000	19.112743
1272.000000	19.113680
1273.000000	19.114310
1274.000000	19.113547
1275.000000	19.111150
1276.000000	19.110103
1277.000000	19.109383
1278.000000	19.109243
1279.000000	19.108973
1280.000000	19.110523
1281.000000	19.114003
1282.000000	19.117967
1283.000000	19.122850
1284.000000	19.129780
1285.000000	19.136760
1286.000000	19.143377
1287.000000	19.151333
1288.000000	19.160753
1289.000000	19.171160
1290.000000	19.181230
1291.000000	19.190373
1292.000000	19.199237
1293.000000	19.208277
1294.000000	19.217173
1295.000000	19.226390
1296.000000	19.236237
1297.000000	19.245123
1298.000000	19.251723
1299.000000	19.257997
1300.000000	19.264517
1301.000000	19.270523
1302.000000	19.276270
1303.000000	19.280260
1304.000000	19.281847
1305.000000	19.281060
1306.000000	19.278520
1307.000000	19.275653
1308.000000	19.272893
1309.000000	19.268510
1310.000000	19.262157
1311.000000	19.253530
1312.000000	19.242760
1313.000000	19.231680
1314.000000	19.220593
1315.000000	19.208950
1316.000000	19.195010
1317.000000	19.178710
1318.000000	19.160860
1319.000000	19.141877
1320.000000	19.121543
1321.000000	19.100377
1322.000000	19.077953
1323.000000	19.054200
1324.000000	19.030230
1325.000000	19.005957
1326.000000	18.981427
1327.000000	18.955513
1328.000000	18.927620
1329.000000	18.898673
1330.000000	18.869443
1331.000000	18.839903
1332.000000	18.808910
1333.000000	18.775903
1334.000000	18.740750
1335.000000	18.704493
1336.000000	18.665753
1337.000000	18.625767
1338.000000	18.585170
1339.000000	18.542780
1340.000000	18.498313
1341.000000	18.451170
1342.000000	18.402410
1343.000000	18.351543
1344.000000	18.298107
1345.000000	18.240863
1346.000000	18.182407
1347.000000	18.122033
1348.000000	18.059620
1349.000000	17.995137
1350.000000	17.926653
1351.000000	17.854743
1352.000000	17.782740
1353.000000	17.711257
1354.000000	17.642550
1355.000000	17.578333
1356.000000	17.514533
1357.000000	17.454293
1358.000000	17.396000
1359.000000	17.338107
1360.000000	17.285290
1361.000000	17.244997
1362.000000	17.210077
1363.000000	17.176477
1364.000000	17.142530
1365.000000	17.105970
1366.000000	17.068443
1367.000000	17.028057
1368.000000	16.986110
1369.000000	16.943057
1370.000000	16.892050
1371.000000	16.828147
1372.000000	16.752783
1373.000000	16.664577
1374.000000	16.562213
1375.000000	16.447380
1376.000000	16.320850
1377.000000	16.181087
1378.000000	16.028107
1379.000000	15.864320
1380.000000	15.697570
1381.000000	15.533190
1382.000000	15.376907
1383.000000	15.233000
1384.000000	15.100227
1385.000000	14.977097
1386.000000	14.866457
1387.000000	14.772207
1388.000000	14.695293
1389.000000	14.632127
1390.000000	14.575480
1391.000000	14.522157
1392.000000	14.470090
1393.000000	14.418857
1394.000000	14.371287
1395.000000	14.332453
1396.000000	14.297437
1397.000000	14.256847
1398.000000	14.207027
1399.000000	14.156753
1400.000000	14.113670
1401.000000	14.068070
1402.000000	14.011540
1403.000000	13.948060
1404.000000	13.878617
1405.000000	13.800657
1406.000000	13.715193
1407.000000	13.628130
1408.000000	13.542297
1409.000000	13.452910
1410.000000	13.352467
1411.000000	13.245883
1412.000000	13.142617
1413.000000	13.042320
1414.000000	12.944477
1415.000000	12.844347
1416.000000	12.742387
1417.000000	12.641863
1418.000000	12.545363
1419.000000	12.451433
1420.000000	12.361280
1421.000000	12.274810
1422.000000	12.192890
1423.000000	12.113890
1424.000000	12.035620
1425.000000	11.960353
1426.000000	11.891143
1427.000000	11.826850
1428.000000	11.763213
1429.000000	11.699987
1430.000000	11.640367
1431.000000	11.586213
1432.000000	11.534490
1433.000000	11.484320
1434.000000	11.436727
1435.000000	11.392107
1436.000000	11.349340
1437.000000	11.308023
1438.000000	11.271410
1439.000000	11.235623
1440.000000	11.202343
1441.000000	11.168683
1442.000000	11.136233
1443.000000	11.105273
1444.000000	11.075790
1445.000000	11.050013
1446.000000	11.027490
1447.000000	11.001373
1448.000000	10.972777
1449.000000	10.948343
1450.000000	10.924613
1451.000000	10.904033
1452.000000	10.881973
1453.000000	10.858023
1454.000000	10.833007
1455.000000	10.807340
1456.000000	10.779040
1457.000000	10.753623
1458.000000	10.729430
1459.000000	10.701890
1460.000000	10.673030
1461.000000	10.642537
1462.000000	10.612350
1463.000000	10.584203
1464.000000	10.556293
1465.000000	10.526843
1466.000000	10.498033
1467.000000	10.469427
1468.000000	10.440550
1469.000000	10.412147
1470.000000	10.385427
1471.000000	10.358550
1472.000000	10.332910
1473.000000	10.307523
1474.000000	10.281557
1475.000000	10.256580
1476.000000	10.233260
1477.000000	10.211203
1478.000000	10.188640
1479.000000	10.167263
1480.000000	10.146793
1481.000000	10.127680
1482.000000	10.108897
1483.000000	10.091047
1484.000000	10.074747
1485.000000	10.058673
1486.000000	10.043227
1487.000000	10.028517
1488.000000	10.014780
1489.000000	10.002783
1490.000000	9.990487
1491.000000	9.977820
1492.000000	9.967033
1493.000000	9.956970
1494.000000	9.948460
1495.000000	9.942003
1496.000000	9.936027
1497.000000	9.931893
1498.000000	9.930247
1499.000000	9.931397
1500.000000	9.934110
1501.000000	9.940003
1502.000000	9.948100
1503.000000	9.958797
1504.000000	9.971823
1505.000000	9.987797
1506.000000	10.006417
1507.000000	10.026050
1508.000000	10.047890
1509.000000	10.069723
1510.000000	10.093297
1511.000000	10.118577
1512.000000	10.145393
1513.000000	10.172140
1514.000000	10.200013
1515.000000	10.227607
1516.000000	10.256213
1517.000000	10.284777
1518.000000	10.312677
1519.000000	10.341733
1520.000000	10.370830
1521.000000	10.398677
1522.000000	10.425727
1523.000000	10.453183
1524.000000	10.480873
1525.000000	10.508010
1526.000000	10.534390
1527.000000	10.561183
1528.000000	10.587747
1529.000000	10.613917
1530.000000	10.639367
1531.000000	10.665410
1532.000000	10.692017
1533.000000	10.716450
1534.000000	10.739280
1535.000000	10.761450
1536.000000	10.783030
1537.000000	10.804543
1538.000000	10.825737
1539.000000	10.845507
1540.000000	10.864940
1541.000000	10.883930
1542.000000	10.901107
1543.000000	10.918240
1544.000000	10.935670
1545.000000	10.953910
1546.000000	10.971997
1547.000000	10.990583
1548.000000	11.010353
1549.000000	11.031073
1550.000000	11.051867
1551.000000	11.073510
1552.000000	11.096890
1553.000000	11.121250
1554.000000	11.145127
1555.000000	11.168767
1556.000000	11.191583
1557.000000	11.212653
1558.000000	11.231527
1559.000000	11.248320
1560.000000	11.263160
1561.000000	11.274897
1562.000000	11.283407
1563.000000	11.289863
1564.000000	11.294270
1565.000000	11.295777
1566.000000	11.295460
1567.000000	11.293230
1568.000000	11.289957
1569.000000	11.285073
1570.000000	11.278493
1571.000000	11.271830
1572.000000	11.265340
1573.000000	11.259967
1574.000000	11.255297
1575.000000	11.250893
1576.000000	11.247600
1577.000000	11.245090
1578.000000	11.243180
1579.000000	11.243247
1580.000000	11.246427
1581.000000	11.251133
1582.000000	11.256563
1583.000000	11.263053
1584.000000	11.271807
1585.000000	11.282240
1586.000000	11.292547
1587.000000	11.305047
1588.000000	11.319953
1589.000000	11.335320
1590.000000	11.349847
1591.000000	11.364047
1592.000000	11.379907
1593.000000	11.395983
1594.000000	11.411073
1595.000000	11.426497
1596.000000	11.443640
1597.000000	11.461553
1598.000000	11.479377
1599.000000	11.497397
1600.000000	11.517523
1601.000000	11.540073
1602.000000	11.562480
1603.000000	11.585487
1604.000000	11.609813
1605.000000	11.634377
1606.000000	11.659490
1607.000000	11.683850
1608.000000	11.707743
1609.000000	11.732270
1610.000000	11.756387
1611.000000	11.779700
1612.000000	11.801750
1613.000000	11.822800
1614.000000	11.843383
1615.000000	11.862477
1616.000000	11.881137
1617.000000	11.899003
1618.000000	11.916650
1619.000000	11.932960
1620.000000	11.947253
1621.000000	11.960270
1622.000000	11.974400
1623.000000	11.989217
1624.000000	12.003607
1625.000000	12.019263
1626.000000	12.033330
1627.000000	12.047837
1628.000000	12.061990
1629.000000	12.076757
1630.000000	12.091693
1631.000000	12.106660
1632.000000	12.120043
1633.000000	12.132557
1634.000000	12.143800
1635.000000	12.154037
1636.000000	12.164353
1637.000000	12.173320
1638.000000	12.181127
1639.000000	12.187693
1640.000000	12.194630
1641.000000	12.200897
1642.000000	12.205797
1643.000000	12.208670
1644.000000	12.211450
1645.000000	12.214910
1646.000000	12.216933
1647.000000	12.217943
1648.000000	12.217507
1649.000000	12.217687
1650.000000	12.215493
1651.000000	12.211473
1652.000000	12.207067
1653.000000	12.201980
1654.000000	12.194847
1655.000000	12.183690
1656.000000	12.170480
1657.000000	12.154137
1658.000000	12.135363
1659.000000	12.112680
1660.000000	12.086867
1661.000000	12.057613
1662.000000	12.024110
1663.000000	11.987227
1664.000000	11.946253
1665.000000	11.901273
1666.000000	11.852987
1667.000000	11.802770
1668.000000	11.746290
1669.000000	11.685713
1670.000000	11.623620
1671.000000	11.560140
1672.000000	11.496287
1673.000000	11.431357
1674.000000	11.365310
1675.000000	11.300660
1676.000000	11.236397
1677.000000	11.172383
1678.000000	11.110900
1679.000000	11.050313
1680.000000	10.988560
1681.000000	10.925200
1682.000000	10.860557
1683.000000	10.793493
1684.000000	10.725733
1685.000000	10.656650
1686.000000	10.590290
1687.000000	10.526350
1688.000000	10.468467
1689.000000	10.419613
1690.000000	10.378927
1691.000000	10.350473
1692.000000	10.331363
1693.000000	10.322747
1694.000000	10.326617
1695.000000	10.339220
1696.000000	10.356973
1697.000000	10.376830
1698.000000	10.398917
1699.000000	10.418920
1700.000000	10.439420
1701.000000	10.454133
1702.000000	10.465723
1703.000000	10.473857
1704.000000	10.476877
1705.000000	10.475287
1706.000000	10.469160
1707.000000	10.459927
1708.000000	10.447117
1709.000000	10.429947
1710.000000	10.407233
1711.000000	10.380613
1712.000000	10.348617
1713.000000	10.312483
1714.000000	10.269650
1715.000000	10.222740
1716.000000	10.169053
1717.000000	10.111947
1718.000000	10.047777
1719.000000	9.980550
1720.000000	9.911713
1721.000000	9.842750
1722.000000	9.776953
1723.000000	9.714540
1724.000000	9.659323
1725.000000	9.610920
1726.000000	9.572357
1727.000000	9.542510
1728.000000	9.525260
1729.000000	9.515473
1730.000000	9.515347
1731.000000	9.521743
1732.000000	9.534270
1733.000000	9.551743
1734.000000	9.570467
1735.000000	9.590297
1736.000000	9.611807
1737.000000	9.634490
1738.000000	9.657330
1739.000000	9.682710
1740.000000	9.707570
1741.000000	9.734787
1742.000000	9.762137
1743.000000	9.789043
1744.000000	9.817733
1745.000000	9.847873
1746.000000	9.878333
1747.000000	9.907857
1748.000000	9.936970
1749.000000	9.964060
1750.000000	9.988537
1751.000000	10.010923
1752.000000	10.030460
1753.000000	10.047823
1754.000000	10.060733
1755.000000	10.071867
1756.000000	10.080523
1757.000000	10.088667
1758.000000	10.094083
1759.000000	10.098060
1760.000000	10.101420
1761.000000	10.102500
1762.000000	10.104130
1763.000000	10.105433
1764.000000	10.109403
1765.000000	10.112790
1766.000000	10.117033
1767.000000	10.121193
1768.000000	10.126637
1769.000000	10.134963
1770.000000	10.144477
1771.000000	10.155280
1772.000000	10.167433
1773.000000	10.181130
1774.000000	10.194170
1775.000000	10.208520
1776.000000	10.223850
1777.000000	10.239420
1778.000000	10.255303
1779.000000	10.269983
1780.000000	10.285127
1781.000000	10.299937
1782.000000	10.311980
1783.000000	10.322230
1784.000000	10.332007
1785.000000	10.339733
1786.000000	10.346030
1787.000000	10.351280
1788.000000	10.353983
1789.000000	10.354270
1790.000000	10.352717
1791.000000	10.350560
1792.000000	10.349870
1793.000000	10.349473
1794.000000	10.349090
1795.000000	10.349617
1796.000000	10.349710
1797.000000	10.348903
1798.000000	10.349017
1799.000000	10.350680
1800.000000	10.352793
1801.000000	10.356247
1802.000000	10.359277
1803.000000	10.361287
1804.000000	10.362463
1805.000000	10.363947
1806.000000	10.365893
1807.000000	10.369107
1808.000000	10.371357
1809.000000	10.371303
1810.000000	10.371293
1811.000000	10.372480
1812.000000	10.374640
1813.000000	10.377430
1814.000000	10.380110
1815.000000	10.382007
1816.000000	10.383247
1817.000000	10.380773
1818.000000	10.375943
1819.000000	10.373263
1820.000000	10.374723
1821.000000	10.379547
1822.000000	10.384470
1823.000000	10.384350
1824.000000	10.378087
1825.000000	10.368813
1826.000000	10.359943
1827.000000	10.356903
1828.000000	10.359303
1829.000000	10.363387
1830.000000	10.364680
1831.000000	10.361457
1832.000000	10.355620
1833.000000	10.351630
1834.000000	10.351397
1835.000000	10.354573
1836.000000	10.361757
1837.000000	10.370133
1838.000000	10.377533
1839.000000	10.383723
1840.000000	10.391780
1841.000000	10.404993
1842.000000	10.424423
1843.000000	10.444270
1844.000000	10.457390
1845.000000	10.461727
1846.000000	10.460637
1847.000000	10.464927
1848.000000	10.478713
1849.000000	10.496107
1850.000000	10.504963
1851.000000	10.499000
1852.000000	10.484133
1853.000000	10.472557
1854.000000	10.471583
1855.000000	10.479307
1856.000000	10.485137
1857.000000	10.477017
1858.000000	10.457730
1859.000000	10.436750
1860.000000	10.420787
1861.000000	10.412187
1862.000000	10.403523
1863.000000	10.387230
1864.000000	10.360473
1865.000000	10.325253
1866.000000	10.286020
1867.000000	10.245380
1868.000000	10.200567
1869.000000	10.150053
1870.000000	10.101367
1871.000000	10.054803
1872.000000	10.009583
1873.000000	9.969007
1874.000000	9.933063
1875.000000	9.899023
1876.000000	9.863683
1877.000000	9.825543
1878.000000	9.781703
1879.000000	9.728290
1880.000000	9.659023
1881.000000	9.574380
1882.000000	9.481003
1883.000000	9.379683
1884.000000	9.270880
1885.000000	9.156170
1886.000000	9.035657
1887.000000	8.908447
1888.000000	8.773133
1889.000000	8.632443
1890.000000	8.491120
1891.000000	8.349720
1892.000000	8.205687
1893.000000	8.055600
1894.000000	7.899020
1895.000000	7.736407
1896.000000	7.567690
1897.000000	7.397053
1898.000000	7.229360
1899.000000	7.066300
1900.000000	6.904330
1901.000000	6.743703
1902.000000	6.582843
1903.000000	6.424840
1904.000000	6.274220
1905.000000	6.132393
1906.000000	6.002530
1907.000000	5.878447
1908.000000	5.759237
1909.000000	5.642677
1910.000000	5.529070
1911.000000	5.420153
1912.000000	5.319410
1913.000000	5.228293
1914.000000	5.145480
1915.000000	5.065790
1916.000000	4.986470
1917.000000	4.912030
1918.000000	4.840843
1919.000000	4.777073
1920.000000	4.721517
1921.000000	4.673633
1922.000000	4.629337
1923.000000	4.586033
1924.000000	4.541370
1925.000000	4.499193
1926.000000	4.462397
1927.000000	4.431743
1928.000000	4.407940
1929.000000	4.386693
1930.000000	4.367670
1931.000000	4.348003
1932.000000	4.329933
1933.000000	4.313360
1934.000000	4.300947
1935.000000	4.291387
1936.000000	4.283967
1937.000000	4.278743
1938.000000	4.275583
1939.000000	4.275527
1940.000000	4.274633
1941.000000	4.275837
1942.000000	4.279183
1943.000000	4.285240
1944.000000	4.292660
1945.000000	4.301803
1946.000000	4.314223
1947.000000	4.326530
1948.000000	4.338660
1949.000000	4.352477
1950.000000	4.367043
1951.000000	4.381763
1952.000000	4.398703
1953.000000	4.415823
1954.000000	4.434507
1955.000000	4.454057
1956.000000	4.473250
1957.000000	4.492197
1958.000000	4.513357
1959.000000	4.532653
1960.000000	4.552590
1961.000000	4.574930
1962.000000	4.595977
1963.000000	4.617843
1964.000000	4.639763
1965.000000	4.661933
1966.000000	4.682383
1967.000000	4.704067
1968.000000	4.724157
1969.000000	4.744780
1970.000000	4.766007
1971.000000	4.786423
1972.000000	4.806573
1973.000000	4.827253
1974.000000	4.847993
1975.000000	4.869260
1976.000000	4.889487
1977.000000	4.910750
1978.000000	4.933760
1979.000000	4.956117
1980.000000	4.979830
1981.000000	5.003090
1982.000000	5.027117
1983.000000	5.050077
1984.000000	5.073013
1985.000000	5.095390
1986.000000	5.119427
1987.000000	5.144803
1988.000000	5.167623
1989.000000	5.191380
1990.000000	5.214653
1991.000000	5.237433
1992.000000	5.260653
1993.000000	5.283927
1994.000000	5.306607
1995.000000	5.330187
1996.000000	5.353273
1997.000000	5.373367
1998.000000	5.394443
1999.000000	5.413987
2000.000000	5.431613
2001.000000	5.448863
2002.000000	5.465123
2003.000000	5.480180
2004.000000	5.494653
2005.000000	5.507377
2006.000000	5.519983
2007.000000	5.530977
2008.000000	5.539703
2009.000000	5.546773
2010.000000	5.554247
2011.000000	5.559760
2012.000000	5.562833
2013.000000	5.565590
2014.000000	5.566100
2015.000000	5.563947
2016.000000	5.559897
2017.000000	5.555877
2018.000000	5.550040
2019.000000	5.542187
2020.000000	5.533853
2021.000000	5.524577
2022.000000	5.513240
2023.000000	5.498380
2024.000000	5.482727
2025.000000	5.466323
2026.000000	5.449377
2027.000000	5.428737
2028.000000	5.407827
2029.000000	5.387233
2030.000000	5.363283
2031.000000	5.338190
2032.000000	5.312200
2033.000000	5.286707
2034.000000	5.259413
2035.000000	5.231360
2036.000000	5.202073
2037.000000	5.173063
2038.000000	5.140830
2039.000000	5.108397
2040.000000	5.074663
2041.000000	5.039790
2042.000000	5.004443
2043.000000	4.968477
2044.000000	4.932200
2045.000000	4.895657
2046.000000	4.858393
2047.000000	4.822383
2048.000000	4.790110
2049.000000	4.756777
2050.000000	4.725997
2051.000000	4.698847
2052.000000	4.674590
2053.000000	4.653637
2054.000000	4.637183
2055.000000	4.624463
2056.000000	4.616403
2057.000000	4.612297
2058.000000	4.611840
2059.000000	4.616470
2060.000000	4.625397
2061.000000	4.638830
2062.000000	4.655747
2063.000000	4.676327
2064.000000	4.698910
2065.000000	4.724083
2066.000000	4.750410
2067.000000	4.777777
2068.000000	4.806140
2069.000000	4.835560
2070.000000	4.865267
2071.000000	4.893373
2072.000000	4.920683
2073.000000	4.946943
2074.000000	4.972480
2075.000000	4.996583
2076.000000	5.019597
2077.000000	5.041493
2078.000000	5.061317
2079.000000	5.078733
2080.000000	5.094333
2081.000000	5.108197
2082.000000	5.120293
2083.000000	5.130360
2084.000000	5.137793
2085.000000	5.143030
2086.000000	5.146523
2087.000000	5.147753
2088.000000	5.147137
2089.000000	5.145690
2090.000000	5.143147
2091.000000	5.138440
2092.000000	5.132510
2093.000000	5.125073
2094.000000	5.117770
2095.000000	5.110283
2096.000000	5.101507
2097.000000	5.092117
2098.000000	5.083493
2099.000000	5.075793
2100.000000	5.068400
2101.000000	5.060813
2102.000000	5.053263
2103.000000	5.047583
2104.000000	5.041430
2105.000000	5.034673
2106.000000	5.029510
2107.000000	5.025230
2108.000000	5.020277
2109.000000	5.014350
2110.000000	5.008060
2111.000000	5.002503
2112.000000	4.997527
2113.000000	4.991093
2114.000000	4.983560
2115.000000	4.975660
2116.000000	4.965940
2117.000000	4.955720
2118.000000	4.945583
2119.000000	4.933427
2120.000000	4.919750
2121.000000	4.905993
2122.000000	4.891547
2123.000000	4.876103
2124.000000	4.860663
2125.000000	4.845080
2126.000000	4.829063
2127.000000	4.812380
2128.000000	4.793927
2129.000000	4.774577
2130.000000	4.756293
2131.000000	4.736377
2132.000000	4.714853
2133.000000	4.693067
2134.000000	4.671423
2135.000000	4.649530
2136.000000	4.626433
2137.000000	4.601433
2138.000000	4.576520
2139.000000	4.551770
2140.000000	4.525737
2141.000000	4.499120
2142.000000	4.472267
2143.000000	4.444720
2144.000000	4.415173
2145.000000	4.384497
2146.000000	4.354353
2147.000000	4.325440
2148.000000	4.296590
2149.000000	4.267720
2150.000000	4.237497
2151.000000	4.208290
2152.000000	4.180140
2153.000000	4.152047
2154.000000	4.124790
2155.000000	4.098520
2156.000000	4.073347
2157.000000	4.048543
2158.000000	4.024703
2159.000000	4.002520
2160.000000	3.981860
2161.000000	3.961667
2162.000000	3.942017
2163.000000	3.924263
2164.000000	3.908407
2165.000000	3.894107
2166.000000	3.880713
2167.000000	3.867820
2168.000000	3.855870
2169.000000	3.844403
2170.000000	3.833460
2171.000000	3.824200
2172.000000	3.815277
2173.000000	3.805663
2174.000000	3.796257
2175.000000	3.787207
2176.000000	3.778527
2177.000000	3.770933
2178.000000	3.762680
2179.000000	3.755047
2180.000000	3.747233
2181.000000	3.739070
2182.000000	3.730770
2183.000000	3.723930
2184.000000	3.715247
2185.000000	3.705613
2186.000000	3.695307
2187.000000	3.682013
2188.000000	3.667757
2189.000000	3.651930
2190.000000	3.634603
2191.000000	3.612953
2192.000000	3.589090
2193.000000	3.560500
2194.000000	3.531713
2195.000000	3.500297
2196.000000	3.465933
2197.000000	3.429630
2198.000000	3.392113
2199.000000	3.351467
2200.000000	3.309153
2201.000000	3.269010
2202.000000	3.229493
2203.000000	3.191520
2204.000000	3.153543
2205.000000	3.117887
2206.000000	3.085337
2207.000000	3.056680
2208.000000	3.031907
2209.000000	3.011520
2210.000000	2.998370
2211.000000	2.987640
2212.000000	2.981667
2213.000000	2.980250
2214.000000	2.984283
2215.000000	2.993580
2216.000000	3.006083
2217.000000	3.023853
2218.000000	3.042897
2219.000000	3.066030
2220.000000	3.088437
2221.000000	3.114227
2222.000000	3.140380
2223.000000	3.168550
2224.000000	3.196417
2225.000000	3.224160
2226.000000	3.251380
2227.000000	3.275447
2228.000000	3.299913
2229.000000	3.322790
2230.000000	3.345710
2231.000000	3.366693
2232.000000	3.385007
2233.000000	3.400037
2234.000000	3.414180
2235.000000	3.424030
2236.000000	3.430983
2237.000000	3.437167
2238.000000	3.440640
2239.000000	3.441603
2240.000000	3.439407
2241.000000	3.435443
2242.000000	3.429550
2243.000000	3.421013
2244.000000	3.410780
2245.000000	3.400723
2246.000000	3.388983
2247.000000	3.373087
2248.000000	3.356527
2249.000000	3.339363
2250.000000	3.322010
2251.000000	3.301470
2252.000000	3.281440
2253.000000	3.261383
2254.000000	3.240303
2255.000000	3.217407
2256.000000	3.196043
2257.000000	3.175683
2258.000000	3.156323
2259.000000	3.136543
2260.000000	3.119003
2261.000000	3.103493
2262.000000	3.089927
2263.000000	3.077773
2264.000000	3.066117
2265.000000	3.057907
2266.000000	3.051067
2267.000000	3.048137
2268.000000	3.044603
2269.000000	3.043697
2270.000000	3.042663
2271.000000	3.044753
2272.000000	3.046590
2273.000000	3.049800
2274.000000	3.055993
2275.000000	3.061437
2276.000000	3.067450
2277.000000	3.072587
2278.000000	3.078747
2279.000000	3.085037
2280.000000	3.089300
2281.000000	3.093203
2282.000000	3.097070
2283.000000	3.100860
2284.000000	3.103417
2285.000000	3.105310
2286.000000	3.106657
2287.000000	3.107620
2288.000000	3.109243
2289.000000	3.109060
2290.000000	3.110450
2291.000000	3.111890
2292.000000	3.114077
2293.000000	3.116197
2294.000000	3.117697
2295.000000	3.119467
2296.000000	3.121597
2297.000000	3.124520
2298.000000	3.127593
2299.000000	3.131303
2300.000000	3.135890
2301.000000	3.138847
2302.000000	3.142050
2303.000000	3.145890
2304.000000	3.151030
2305.000000	3.156460
2306.000000	3.163077
2307.000000	3.170853
2308.000000	3.178330
2309.000000	3.185993
2310.000000	3.194060
2311.000000	3.203327
2312.000000	3.211383
2313.000000	3.219610
2314.000000	3.227557
2315.000000	3.235540
2316.000000	3.241787
2317.000000	3.247107
2318.000000	3.250720
2319.000000	3.254293
2320.000000	3.257007
2321.000000	3.257387
2322.000000	3.257630
2323.000000	3.257063
2324.000000	3.254023
2325.000000	3.250647
2326.000000	3.246893
2327.000000	3.241553
2328.000000	3.237540
2329.000000	3.232663
2330.000000	3.226313
2331.000000	3.221197
2332.000000	3.216697
2333.000000	3.211960
2334.000000	3.208467
2335.000000	3.205303
2336.000000	3.203167
2337.000000	3.202117
2338.000000	3.201143
2339.000000	3.201560
2340.000000	3.203590
2341.000000	3.205690
2342.000000	3.207677
2343.000000	3.210633
2344.000000	3.213930
2345.000000	3.217223
2346.000000	3.221150
2347.000000	3.225353
2348.000000	3.229980
2349.000000	3.234597
2350.000000	3.239000
2351.000000	3.244800
2352.000000	3.250910
2353.000000	3.256757
2354.000000	3.262733
2355.000000	3.267603
2356.000000	3.271800
2357.000000	3.276570
2358.000000	3.280747
2359.000000	3.283587
2360.000000	3.286423
2361.000000	3.288067
2362.000000	3.289330
2363.000000	3.290057
2364.000000	3.289887
2365.000000	3.290947
2366.000000	3.291353
2367.000000	3.290473
2368.000000	3.290280
2369.000000	3.291127
2370.000000	3.291560
2371.000000	3.292160
2372.000000	3.292907
2373.000000	3.294177
2374.000000	3.296510
2375.000000	3.298973
2376.000000	3.301540
2377.000000	3.304427
2378.000000	3.306063
2379.000000	3.307343
2380.000000	3.309270
2381.000000	3.311063
2382.000000	3.312487
2383.000000	3.313130
2384.000000	3.313117
2385.000000	3.312623
2386.000000	3.311380
2387.000000	3.309703
2388.000000	3.308143
2389.000000	3.306130
2390.000000	3.303670
2391.000000	3.300273
2392.000000	3.296240
2393.000000	3.292020
2394.000000	3.287123
2395.000000	3.280750
2396.000000	3.274890
2397.000000	3.268363
2398.000000	3.261943
2399.000000	3.256353
2400.000000	3.249017
2401.000000	3.241030
2402.000000	3.233513
2403.000000	3.226020
2404.000000	3.217920
2405.000000	3.210813
2406.000000	3.202503
2407.000000	3.193237
2408.000000	3.183107
2409.000000	3.170983
2410.000000	3.159167
2411.000000	3.148217
2412.000000	3.135953
2413.000000	3.122993
2414.000000	3.109153
2415.000000	3.093690
2416.000000	3.078767
2417.000000	3.063453
2418.000000	3.046550
2419.000000	3.028647
2420.000000	3.011373
2421.000000	2.991597
2422.000000	2.970830
2423.000000	2.949890
2424.000000	2.928880
2425.000000	2.907573
2426.000000	2.886263
2427.000000	2.865883
2428.000000	2.844277
2429.000000	2.823300
2430.000000	2.801393
2431.000000	2.779597
2432.000000	2.758330
2433.000000	2.736170
2434.000000	2.713817
2435.000000	2.691947
2436.000000	2.668350
2437.000000	2.644587
2438.000000	2.621573
2439.000000	2.600087
2440.000000	2.577910
2441.000000	2.555463
2442.000000	2.532593
2443.000000	2.508863
2444.000000	2.486843
2445.000000	2.464630
2446.000000	2.443427
2447.000000	2.420250
2448.000000	2.399700
2449.000000	2.378210
2450.000000	2.354900
2451.000000	2.334353
2452.000000	2.314533
2453.000000	2.296597
2454.000000	2.279413
2455.000000	2.261123
2456.000000	2.243310
2457.000000	2.228273
2458.000000	2.211380
2459.000000	2.194293
2460.000000	2.181493
2461.000000	2.169563
2462.000000	2.156820
2463.000000	2.143417
2464.000000	2.127147
2465.000000	2.116047
2466.000000	2.102950
2467.000000	2.091450
2468.000000	2.079667
2469.000000	2.069367
2470.000000	2.059860
2471.000000	2.048077
2472.000000	2.037307
2473.000000	2.029363
2474.000000	2.023967
2475.000000	2.016037
2476.000000	2.009540
2477.000000	2.004780
2478.000000	1.999357
2479.000000	1.994920
2480.000000	1.991797
2481.000000	1.992943
2482.000000	1.993953
2483.000000	1.988777
2484.000000	1.987923
2485.000000	1.988590
2486.000000	1.989337
2487.000000	1.989183
2488.000000	1.993550
2489.000000	1.994483
2490.000000	1.990723
2491.000000	1.991763
2492.000000	1.993830
2493.000000	2.000793
2494.000000	1.997020
2495.000000	2.003427
2496.000000	2.007803
2497.000000	2.020290
2498.000000	2.027733
2499.000000	2.040963
2500.000000	2.046403
