PE UV       SUBTECH     SPECTRUM    ASCII       PEDS        4.00        
   -1
S.BELT.1063-TX3.ASC
23/11/29
16:25:54.00
23/11/29
16:25:54.00
Vinicio Soto Monge
STRIGIDA BELTI INBIO0004211063
250,000000
1
Lambda 1050
1050L1511233
PerkinElmer UV WinLab 6.3.2.0749 / 2.02.05 Lambda 900 UV/VIS/NIR, Aug  7 2015 09:38:08

0
0
3350/servo 860,8/2
0
0
UV/VIS
1
1
1
DoubleDePol,CommonBeamDepol,RBeamAtt,SBeamAtt,60mm sphere, WB InGaAs Detector
0
0
0
0
Program
Program
3350/servo 860,8/2
3350/0,4 860,8/0,4
3350/0,4 860,8/0,4
0
20.00
 
 
 
0
 
860,8
319,2
860,8
Front
100
on
S:100 R:100
0
0
0
0
 
0
 
 
 
0
 
 
0
0
0
0
0
 
 
 
 
0
0


0
0
#HDR
-1
-1
#GR
nm
%A
1.0
0.0
2200,000000
-1,000000
1951
8
69,176726
0,292731
#DATA
284.000000	90.947341
285.000000	90.987924
286.000000	91.028064
287.000000	91.066504
288.000000	91.103005
289.000000	91.138622
290.000000	91.172567
291.000000	91.204757
292.000000	91.235830
293.000000	91.266781
294.000000	91.294902
295.000000	91.324183
296.000000	91.351746
297.000000	91.378713
298.000000	91.403533
299.000000	91.426958
300.000000	91.449635
301.000000	91.471736
302.000000	91.493427
303.000000	91.514458
304.000000	91.534188
305.000000	91.554439
306.000000	91.574121
307.000000	91.593841
308.000000	91.613130
309.000000	91.632827
310.000000	91.652300
311.000000	91.671965
312.000000	91.690175
313.000000	91.710446
314.000000	91.729442
315.000000	91.748983
316.000000	91.767803
317.000000	91.780975
318.000000	91.792972
319.000000	91.802717
320.000000	91.814866
321.000000	91.827997
322.000000	91.836578
323.000000	91.850662
324.000000	91.863776
325.000000	91.873032
326.000000	91.885530
327.000000	91.898255
328.000000	91.910219
329.000000	91.922608
330.000000	91.932875
331.000000	91.944324
332.000000	91.956459
333.000000	91.967548
334.000000	91.980215
335.000000	91.993097
336.000000	92.005281
337.000000	92.016217
338.000000	92.025941
339.000000	92.039192
340.000000	92.050769
341.000000	92.059432
342.000000	92.067409
343.000000	92.077308
344.000000	92.087437
345.000000	92.095305
346.000000	92.101547
347.000000	92.108804
348.000000	92.114448
349.000000	92.120564
350.000000	92.125265
351.000000	92.130187
352.000000	92.139873
353.000000	92.150527
354.000000	92.163924
355.000000	92.172775
356.000000	92.180558
357.000000	92.193464
358.000000	92.198629
359.000000	92.204986
360.000000	92.213528
361.000000	92.220419
362.000000	92.228090
363.000000	92.235783
364.000000	92.242698
365.000000	92.250275
366.000000	92.256153
367.000000	92.259988
368.000000	92.265527
369.000000	92.269345
370.000000	92.273167
371.000000	92.277922
372.000000	92.282730
373.000000	92.288442
374.000000	92.292854
375.000000	92.298940
376.000000	92.308270
377.000000	92.321155
378.000000	92.332424
379.000000	92.342568
380.000000	92.354100
381.000000	92.366322
382.000000	92.378501
383.000000	92.390818
384.000000	92.403558
385.000000	92.416149
386.000000	92.429184
387.000000	92.442936
388.000000	92.455802
389.000000	92.467902
390.000000	92.481422
391.000000	92.494355
392.000000	92.507257
393.000000	92.521209
394.000000	92.534369
395.000000	92.548110
396.000000	92.561805
397.000000	92.574405
398.000000	92.586515
399.000000	92.598938
400.000000	92.611222
401.000000	92.624289
402.000000	92.638502
403.000000	92.651998
404.000000	92.664992
405.000000	92.677864
406.000000	92.689742
407.000000	92.702584
408.000000	92.714582
409.000000	92.724493
410.000000	92.734456
411.000000	92.742538
412.000000	92.747825
413.000000	92.752801
414.000000	92.757695
415.000000	92.762201
416.000000	92.766357
417.000000	92.770187
418.000000	92.773783
419.000000	92.777268
420.000000	92.780665
421.000000	92.783835
422.000000	92.786916
423.000000	92.789789
424.000000	92.792238
425.000000	92.794542
426.000000	92.796860
427.000000	92.798631
428.000000	92.800085
429.000000	92.801663
430.000000	92.803018
431.000000	92.804045
432.000000	92.805176
433.000000	92.806236
434.000000	92.806856
435.000000	92.807418
436.000000	92.807757
437.000000	92.807950
438.000000	92.808216
439.000000	92.808431
440.000000	92.808250
441.000000	92.807934
442.000000	92.807363
443.000000	92.806973
444.000000	92.806259
445.000000	92.805049
446.000000	92.803526
447.000000	92.801615
448.000000	92.799694
449.000000	92.797703
450.000000	92.796133
451.000000	92.794229
452.000000	92.791812
453.000000	92.789137
454.000000	92.786375
455.000000	92.783579
456.000000	92.780828
457.000000	92.777431
458.000000	92.773580
459.000000	92.769948
460.000000	92.766595
461.000000	92.762929
462.000000	92.759137
463.000000	92.755031
464.000000	92.750456
465.000000	92.745667
466.000000	92.740433
467.000000	92.734767
468.000000	92.728940
469.000000	92.722701
470.000000	92.716038
471.000000	92.708921
472.000000	92.701093
473.000000	92.692643
474.000000	92.683347
475.000000	92.673383
476.000000	92.662558
477.000000	92.651016
478.000000	92.638647
479.000000	92.625585
480.000000	92.612021
481.000000	92.597601
482.000000	92.582330
483.000000	92.565657
484.000000	92.547568
485.000000	92.528148
486.000000	92.507568
487.000000	92.485962
488.000000	92.462911
489.000000	92.438052
490.000000	92.411587
491.000000	92.383379
492.000000	92.353413
493.000000	92.321638
494.000000	92.287745
495.000000	92.251469
496.000000	92.213193
497.000000	92.172722
498.000000	92.129887
499.000000	92.084210
500.000000	92.035964
501.000000	91.985200
502.000000	91.931186
503.000000	91.873718
504.000000	91.813096
505.000000	91.749089
506.000000	91.681508
507.000000	91.610466
508.000000	91.535520
509.000000	91.456470
510.000000	91.373352
511.000000	91.286134
512.000000	91.194151
513.000000	91.097363
514.000000	90.995559
515.000000	90.888362
516.000000	90.776232
517.000000	90.659058
518.000000	90.536915
519.000000	90.409770
520.000000	90.276859
521.000000	90.138385
522.000000	89.994556
523.000000	89.845548
524.000000	89.691532
525.000000	89.532648
526.000000	89.369099
527.000000	89.201051
528.000000	89.028904
529.000000	88.853062
530.000000	88.673574
531.000000	88.490745
532.000000	88.305281
533.000000	88.117777
534.000000	87.928894
535.000000	87.738422
536.000000	87.547376
537.000000	87.356247
538.000000	87.165709
539.000000	86.975701
540.000000	86.787341
541.000000	86.601283
542.000000	86.418216
543.000000	86.238743
544.000000	86.063390
545.000000	85.892714
546.000000	85.726951
547.000000	85.566722
548.000000	85.413330
549.000000	85.267075
550.000000	85.128422
551.000000	84.997213
552.000000	84.874493
553.000000	84.760270
554.000000	84.654345
555.000000	84.557032
556.000000	84.468322
557.000000	84.388269
558.000000	84.316732
559.000000	84.252662
560.000000	84.195099
561.000000	84.143800
562.000000	84.099008
563.000000	84.059299
564.000000	84.023830
565.000000	83.992485
566.000000	83.963725
567.000000	83.936678
568.000000	83.910276
569.000000	83.883410
570.000000	83.855673
571.000000	83.825562
572.000000	83.792073
573.000000	83.754450
574.000000	83.712059
575.000000	83.663618
576.000000	83.608670
577.000000	83.545870
578.000000	83.474881
579.000000	83.395585
580.000000	83.307216
581.000000	83.210311
582.000000	83.103798
583.000000	82.986903
584.000000	82.859751
585.000000	82.722711
586.000000	82.574916
587.000000	82.417010
588.000000	82.248749
589.000000	82.070586
590.000000	81.882932
591.000000	81.685836
592.000000	81.479057
593.000000	81.262998
594.000000	81.038664
595.000000	80.806486
596.000000	80.566486
597.000000	80.318554
598.000000	80.063628
599.000000	79.802435
600.000000	79.535398
601.000000	79.261649
602.000000	78.982396
603.000000	78.697725
604.000000	78.408668
605.000000	78.115511
606.000000	77.818939
607.000000	77.519066
608.000000	77.216627
609.000000	76.912637
610.000000	76.606756
611.000000	76.299396
612.000000	75.990908
613.000000	75.681762
614.000000	75.372056
615.000000	75.061447
616.000000	74.750589
617.000000	74.439728
618.000000	74.128770
619.000000	73.818103
620.000000	73.506650
621.000000	73.194723
622.000000	72.881706
623.000000	72.567908
624.000000	72.253454
625.000000	71.937708
626.000000	71.620327
627.000000	71.301793
628.000000	70.982319
629.000000	70.661371
630.000000	70.338890
631.000000	70.014744
632.000000	69.689966
633.000000	69.363258
634.000000	69.035333
635.000000	68.705227
636.000000	68.374489
637.000000	68.042634
638.000000	67.710511
639.000000	67.377744
640.000000	67.044058
641.000000	66.708995
642.000000	66.373190
643.000000	66.036615
644.000000	65.698640
645.000000	65.360654
646.000000	65.023089
647.000000	64.684707
648.000000	64.345182
649.000000	64.005329
650.000000	63.665580
651.000000	63.323685
652.000000	62.981828
653.000000	62.638727
654.000000	62.293910
655.000000	61.948382
656.000000	61.602997
657.000000	61.256586
658.000000	60.908306
659.000000	60.558959
660.000000	60.208819
661.000000	59.858260
662.000000	59.506699
663.000000	59.153307
664.000000	58.799001
665.000000	58.443657
666.000000	58.088534
667.000000	57.732629
668.000000	57.376791
669.000000	57.019472
670.000000	56.661383
671.000000	56.304039
672.000000	55.946595
673.000000	55.589567
674.000000	55.233584
675.000000	54.878808
676.000000	54.525436
677.000000	54.172956
678.000000	53.822009
679.000000	53.473236
680.000000	53.125150
681.000000	52.778066
682.000000	52.433085
683.000000	52.089403
684.000000	51.746658
685.000000	51.404798
686.000000	51.065402
687.000000	50.727332
688.000000	50.392334
689.000000	50.058800
690.000000	49.726627
691.000000	49.393825
692.000000	49.062355
693.000000	48.734187
694.000000	48.407145
695.000000	48.080696
696.000000	47.755095
697.000000	47.432340
698.000000	47.111751
699.000000	46.791794
700.000000	46.473562
701.000000	46.156898
702.000000	45.842274
703.000000	45.530289
704.000000	45.221582
705.000000	44.914627
706.000000	44.608377
707.000000	44.305612
708.000000	44.005500
709.000000	43.705868
710.000000	43.407144
711.000000	43.109474
712.000000	42.815282
713.000000	42.522715
714.000000	42.230407
715.000000	41.940165
716.000000	41.650866
717.000000	41.364606
718.000000	41.081648
719.000000	40.801064
720.000000	40.521554
721.000000	40.242354
722.000000	39.964636
723.000000	39.686542
724.000000	39.410668
725.000000	39.137210
726.000000	38.865692
727.000000	38.594484
728.000000	38.324237
729.000000	38.057982
730.000000	37.794578
731.000000	37.532203
732.000000	37.269816
733.000000	37.008886
734.000000	36.751631
735.000000	36.496634
736.000000	36.241404
737.000000	35.987695
738.000000	35.735696
739.000000	35.484958
740.000000	35.236209
741.000000	34.990347
742.000000	34.744055
743.000000	34.497796
744.000000	34.253934
745.000000	34.011903
746.000000	33.772811
747.000000	33.534283
748.000000	33.295832
749.000000	33.059655
750.000000	32.824786
751.000000	32.591869
752.000000	32.357809
753.000000	32.122005
754.000000	31.887542
755.000000	31.656537
756.000000	31.426875
757.000000	31.199499
758.000000	30.976337
759.000000	30.753551
760.000000	30.530787
761.000000	30.309462
762.000000	30.090259
763.000000	29.871912
764.000000	29.652076
765.000000	29.433597
766.000000	29.217507
767.000000	29.001766
768.000000	28.788356
769.000000	28.574577
770.000000	28.362049
771.000000	28.152341
772.000000	27.940669
773.000000	27.727645
774.000000	27.516924
775.000000	27.309080
776.000000	27.102793
777.000000	26.896016
778.000000	26.691788
779.000000	26.488120
780.000000	26.285648
781.000000	26.083949
782.000000	25.882688
783.000000	25.683809
784.000000	25.486566
785.000000	25.289220
786.000000	25.091294
787.000000	24.896559
788.000000	24.706583
789.000000	24.518988
790.000000	24.326978
791.000000	24.133477
792.000000	23.942808
793.000000	23.751948
794.000000	23.563633
795.000000	23.375859
796.000000	23.191350
797.000000	23.007496
798.000000	22.824198
799.000000	22.639112
800.000000	22.454375
801.000000	22.271235
802.000000	22.088471
803.000000	21.904896
804.000000	21.724531
805.000000	21.544883
806.000000	21.367205
807.000000	21.191744
808.000000	21.020229
809.000000	20.844095
810.000000	20.668619
811.000000	20.492510
812.000000	20.319860
813.000000	20.145792
814.000000	19.975552
815.000000	19.810148
816.000000	19.643404
817.000000	19.477330
818.000000	19.310052
819.000000	19.145146
820.000000	18.980260
821.000000	18.817289
822.000000	18.654770
823.000000	18.493495
824.000000	18.330357
825.000000	18.169195
826.000000	18.012660
827.000000	17.851321
828.000000	17.690797
829.000000	17.528413
830.000000	17.376528
831.000000	17.225752
832.000000	17.071600
833.000000	16.920239
834.000000	16.777766
835.000000	16.633171
836.000000	16.488667
837.000000	16.348251
838.000000	16.207429
839.000000	16.067183
840.000000	15.927430
841.000000	15.786429
842.000000	15.648998
843.000000	15.510953
844.000000	15.372122
845.000000	15.230934
846.000000	15.095710
847.000000	14.963598
848.000000	14.840589
849.000000	14.700659
850.000000	14.559893
851.000000	14.425876
852.000000	14.296883
853.000000	14.169822
854.000000	14.041726
855.000000	13.915277
856.000000	13.785106
857.000000	13.672531
858.000000	13.561780
859.000000	13.417632
860.000000	13.264796
861.000000	13.093534
862.000000	12.970084
863.000000	12.843325
864.000000	12.709523
865.000000	12.597609
866.000000	12.479809
867.000000	12.342050
868.000000	12.213758
869.000000	12.072364
870.000000	11.909542
871.000000	11.772565
872.000000	11.656650
873.000000	11.548262
874.000000	11.436955
875.000000	11.290494
876.000000	11.167976
877.000000	11.034537
878.000000	10.906656
879.000000	10.800355
880.000000	10.688564
881.000000	10.541168
882.000000	10.384510
883.000000	10.256785
884.000000	10.127132
885.000000	10.006671
886.000000	9.877655
887.000000	9.774563
888.000000	9.650486
889.000000	9.508463
890.000000	9.368180
891.000000	9.251290
892.000000	9.149537
893.000000	9.056856
894.000000	8.958426
895.000000	8.869726
896.000000	8.806281
897.000000	8.700343
898.000000	8.580669
899.000000	8.477644
900.000000	8.371643
901.000000	8.264490
902.000000	8.179233
903.000000	8.093944
904.000000	8.005174
905.000000	7.931663
906.000000	7.828866
907.000000	7.728667
908.000000	7.615877
909.000000	7.495925
910.000000	7.432352
911.000000	7.349885
912.000000	7.294024
913.000000	7.215879
914.000000	7.117913
915.000000	7.047391
916.000000	6.997298
917.000000	6.953201
918.000000	6.889710
919.000000	6.829354
920.000000	6.765768
921.000000	6.710104
922.000000	6.631534
923.000000	6.569862
924.000000	6.521885
925.000000	6.474046
926.000000	6.398925
927.000000	6.317869
928.000000	6.213553
929.000000	6.156506
930.000000	6.116130
931.000000	6.048380
932.000000	5.998826
933.000000	5.954864
934.000000	5.875597
935.000000	5.798024
936.000000	5.730504
937.000000	5.685054
938.000000	5.633645
939.000000	5.596808
940.000000	5.539601
941.000000	5.487219
942.000000	5.423940
943.000000	5.367043
944.000000	5.336935
945.000000	5.284958
946.000000	5.202704
947.000000	5.109177
948.000000	5.054030
949.000000	5.015751
950.000000	4.958352
951.000000	4.932968
952.000000	4.914936
953.000000	4.856565
954.000000	4.794939
955.000000	4.741694
956.000000	4.691254
957.000000	4.648263
958.000000	4.589040
959.000000	4.539922
960.000000	4.506890
961.000000	4.510141
962.000000	4.457686
963.000000	4.416899
964.000000	4.373052
965.000000	4.299699
966.000000	4.270364
967.000000	4.233031
968.000000	4.202310
969.000000	4.199659
970.000000	4.177157
971.000000	4.144281
972.000000	4.084558
973.000000	4.042225
974.000000	4.003642
975.000000	3.994756
976.000000	3.986487
977.000000	3.966005
978.000000	3.947628
979.000000	3.915918
980.000000	3.862695
981.000000	3.845989
982.000000	3.823627
983.000000	3.785473
984.000000	3.734012
985.000000	3.677920
986.000000	3.619115
987.000000	3.548927
988.000000	3.502968
989.000000	3.478706
990.000000	3.454220
991.000000	3.418243
992.000000	3.348907
993.000000	3.303970
994.000000	3.284514
995.000000	3.258159
996.000000	3.204431
997.000000	3.178365
998.000000	3.130899
999.000000	3.071822
1000.000000	3.040497
1001.000000	3.001200
1002.000000	2.992435
1003.000000	2.981140
1004.000000	2.953908
1005.000000	2.911478
1006.000000	2.880405
1007.000000	2.859694
1008.000000	2.815251
1009.000000	2.782940
1010.000000	2.737225
1011.000000	2.704615
1012.000000	2.663996
1013.000000	2.628626
1014.000000	2.578851
1015.000000	2.540732
1016.000000	2.520096
1017.000000	2.500506
1018.000000	2.461055
1019.000000	2.437921
1020.000000	2.431542
1021.000000	2.381367
1022.000000	2.342924
1023.000000	2.314240
1024.000000	2.277185
1025.000000	2.256312
1026.000000	2.246362
1027.000000	2.234397
1028.000000	2.248202
1029.000000	2.249238
1030.000000	2.222601
1031.000000	2.197812
1032.000000	2.177767
1033.000000	2.188243
1034.000000	2.203133
1035.000000	2.194562
1036.000000	2.158230
1037.000000	2.105724
1038.000000	2.062663
1039.000000	2.024234
1040.000000	2.003665
1041.000000	1.995063
1042.000000	1.962870
1043.000000	1.911529
1044.000000	1.872780
1045.000000	1.870173
1046.000000	1.855098
1047.000000	1.839341
1048.000000	1.816039
1049.000000	1.824024
1050.000000	1.835612
1051.000000	1.815317
1052.000000	1.802393
1053.000000	1.810614
1054.000000	1.818682
1055.000000	1.797532
1056.000000	1.814726
1057.000000	1.821325
1058.000000	1.828403
1059.000000	1.846285
1060.000000	1.821386
1061.000000	1.786582
1062.000000	1.787443
1063.000000	1.766284
1064.000000	1.730281
1065.000000	1.690176
1066.000000	1.656612
1067.000000	1.616377
1068.000000	1.575127
1069.000000	1.548595
1070.000000	1.535990
1071.000000	1.546617
1072.000000	1.534444
1073.000000	1.534661
1074.000000	1.545440
1075.000000	1.567306
1076.000000	1.552324
1077.000000	1.564961
1078.000000	1.596646
1079.000000	1.577312
1080.000000	1.554698
1081.000000	1.538736
1082.000000	1.534815
1083.000000	1.526792
1084.000000	1.498388
1085.000000	1.474415
1086.000000	1.447558
1087.000000	1.448161
1088.000000	1.417826
1089.000000	1.385002
1090.000000	1.363942
1091.000000	1.334388
1092.000000	1.341282
1093.000000	1.324141
1094.000000	1.301998
1095.000000	1.269273
1096.000000	1.254861
1097.000000	1.238189
1098.000000	1.204397
1099.000000	1.184556
1100.000000	1.181386
1101.000000	1.179634
1102.000000	1.180162
1103.000000	1.157076
1104.000000	1.152372
1105.000000	1.172073
1106.000000	1.159669
1107.000000	1.138515
1108.000000	1.119850
1109.000000	1.090205
1110.000000	1.027154
1111.000000	1.014892
1112.000000	0.996419
1113.000000	0.949868
1114.000000	0.942030
1115.000000	0.939449
1116.000000	0.955662
1117.000000	0.933420
1118.000000	0.918541
1119.000000	0.928065
1120.000000	0.914688
1121.000000	0.941007
1122.000000	0.896106
1123.000000	0.882208
1124.000000	0.873829
1125.000000	0.866747
1126.000000	0.885695
1127.000000	0.830340
1128.000000	0.789880
1129.000000	0.766740
1130.000000	0.796984
1131.000000	0.789815
1132.000000	0.771334
1133.000000	0.765006
1134.000000	0.707415
1135.000000	0.713229
1136.000000	0.719737
1137.000000	0.688061
1138.000000	0.688058
1139.000000	0.673749
1140.000000	0.643186
1141.000000	0.631992
1142.000000	0.643182
1143.000000	0.648440
1144.000000	0.647209
1145.000000	0.708188
1146.000000	0.697560
1147.000000	0.700702
1148.000000	0.745810
1149.000000	0.752989
1150.000000	0.772625
1151.000000	0.744129
1152.000000	0.718727
1153.000000	0.715517
1154.000000	0.704177
1155.000000	0.696171
1156.000000	0.679054
1157.000000	0.706817
1158.000000	0.750539
1159.000000	0.777077
1160.000000	0.807192
1161.000000	0.794671
1162.000000	0.838574
1163.000000	0.892991
1164.000000	0.942305
1165.000000	0.961563
1166.000000	1.007174
1167.000000	1.035814
1168.000000	1.043992
1169.000000	1.127772
1170.000000	1.176156
1171.000000	1.196695
1172.000000	1.243122
1173.000000	1.270734
1174.000000	1.301698
1175.000000	1.337325
1176.000000	1.390835
1177.000000	1.418975
1178.000000	1.451966
1179.000000	1.472114
1180.000000	1.439394
1181.000000	1.466236
1182.000000	1.489866
1183.000000	1.487360
1184.000000	1.506901
1185.000000	1.528405
1186.000000	1.555796
1187.000000	1.612042
1188.000000	1.631200
1189.000000	1.648943
1190.000000	1.695334
1191.000000	1.725593
1192.000000	1.735786
1193.000000	1.719314
1194.000000	1.720950
1195.000000	1.712535
1196.000000	1.724868
1197.000000	1.750065
1198.000000	1.761879
1199.000000	1.722732
1200.000000	1.703848
1201.000000	1.697104
1202.000000	1.712760
1203.000000	1.754139
1204.000000	1.740567
1205.000000	1.702571
1206.000000	1.690736
1207.000000	1.698234
1208.000000	1.715887
1209.000000	1.718701
1210.000000	1.695677
1211.000000	1.660124
1212.000000	1.632386
1213.000000	1.589082
1214.000000	1.577688
1215.000000	1.568722
1216.000000	1.545298
1217.000000	1.514560
1218.000000	1.506151
1219.000000	1.498478
1220.000000	1.469076
1221.000000	1.454513
1222.000000	1.416164
1223.000000	1.405792
1224.000000	1.406641
1225.000000	1.405000
1226.000000	1.382544
1227.000000	1.361863
1228.000000	1.355032
1229.000000	1.337976
1230.000000	1.352067
1231.000000	1.360717
1232.000000	1.337665
1233.000000	1.298615
1234.000000	1.312947
1235.000000	1.306545
1236.000000	1.271010
1237.000000	1.245851
1238.000000	1.231633
1239.000000	1.234243
1240.000000	1.222868
1241.000000	1.198413
1242.000000	1.179864
1243.000000	1.177320
1244.000000	1.158333
1245.000000	1.160050
1246.000000	1.144801
1247.000000	1.136080
1248.000000	1.131561
1249.000000	1.111666
1250.000000	1.100583
1251.000000	1.102390
1252.000000	1.106131
1253.000000	1.099731
1254.000000	1.082714
1255.000000	1.054336
1256.000000	1.031822
1257.000000	1.046537
1258.000000	1.054496
1259.000000	1.043219
1260.000000	1.017390
1261.000000	1.011943
1262.000000	1.028147
1263.000000	1.041390
1264.000000	1.041408
1265.000000	1.008033
1266.000000	0.985771
1267.000000	0.993156
1268.000000	1.017301
1269.000000	1.013474
1270.000000	0.999054
1271.000000	1.024639
1272.000000	1.051453
1273.000000	1.036257
1274.000000	1.001582
1275.000000	1.012381
1276.000000	1.049639
1277.000000	1.042404
1278.000000	1.025043
1279.000000	1.028700
1280.000000	1.012720
1281.000000	1.020224
1282.000000	1.027520
1283.000000	1.019133
1284.000000	1.034210
1285.000000	1.043537
1286.000000	1.049005
1287.000000	1.056913
1288.000000	1.062681
1289.000000	1.076060
1290.000000	1.064679
1291.000000	1.057053
1292.000000	1.060928
1293.000000	1.051022
1294.000000	1.036266
1295.000000	1.021385
1296.000000	1.018981
1297.000000	1.025964
1298.000000	1.018407
1299.000000	1.023022
1300.000000	1.030246
1301.000000	1.022785
1302.000000	1.006074
1303.000000	0.993020
1304.000000	0.972767
1305.000000	0.980921
1306.000000	0.953410
1307.000000	0.911278
1308.000000	0.908724
1309.000000	0.921172
1310.000000	0.906870
1311.000000	0.864745
1312.000000	0.845924
1313.000000	0.829560
1314.000000	0.808366
1315.000000	0.793589
1316.000000	0.783312
1317.000000	0.774274
1318.000000	0.782750
1319.000000	0.785896
1320.000000	0.778021
1321.000000	0.751713
1322.000000	0.742609
1323.000000	0.759054
1324.000000	0.779098
1325.000000	0.802177
1326.000000	0.819641
1327.000000	0.801469
1328.000000	0.802058
1329.000000	0.797508
1330.000000	0.817737
1331.000000	0.823652
1332.000000	0.800125
1333.000000	0.808048
1334.000000	0.777676
1335.000000	0.783084
1336.000000	0.797704
1337.000000	0.809295
1338.000000	0.804217
1339.000000	0.825290
1340.000000	0.851440
1341.000000	0.896461
1342.000000	0.916690
1343.000000	0.913862
1344.000000	0.930175
1345.000000	0.939934
1346.000000	0.984827
1347.000000	1.037240
1348.000000	1.073653
1349.000000	1.125742
1350.000000	1.201866
1351.000000	1.266264
1352.000000	1.340646
1353.000000	1.381556
1354.000000	1.334604
1355.000000	1.305802
1356.000000	1.297151
1357.000000	1.283227
1358.000000	1.320577
1359.000000	1.338757
1360.000000	1.251777
1361.000000	1.208068
1362.000000	1.386790
1363.000000	1.472811
1364.000000	1.526817
1365.000000	1.688777
1366.000000	1.659081
1367.000000	1.545977
1368.000000	1.540059
1369.000000	1.519944
1370.000000	1.425714
1371.000000	1.421975
1372.000000	1.489396
1373.000000	1.574064
1374.000000	1.566647
1375.000000	1.593706
1376.000000	1.542821
1377.000000	1.636051
1378.000000	1.644116
1379.000000	1.779424
1380.000000	1.927538
1381.000000	2.069360
1382.000000	1.928283
1383.000000	1.887224
1384.000000	1.747284
1385.000000	1.696942
1386.000000	1.718881
1387.000000	1.529923
1388.000000	1.576162
1389.000000	1.629700
1390.000000	1.682359
1391.000000	1.798391
1392.000000	2.091151
1393.000000	2.170256
1394.000000	2.111712
1395.000000	2.276370
1396.000000	2.525574
1397.000000	2.521082
1398.000000	2.571481
1399.000000	2.550450
1400.000000	2.345357
1401.000000	2.499458
1402.000000	2.714830
1403.000000	2.808291
1404.000000	2.793210
1405.000000	3.048200
1406.000000	3.121114
1407.000000	3.191931
1408.000000	3.246570
1409.000000	3.339881
1410.000000	3.422775
1411.000000	3.599895
1412.000000	3.656196
1413.000000	3.775581
1414.000000	3.738703
1415.000000	3.717236
1416.000000	3.682741
1417.000000	3.913733
1418.000000	3.997407
1419.000000	4.257620
1420.000000	4.375713
1421.000000	4.451749
1422.000000	4.725911
1423.000000	4.738285
1424.000000	4.903925
1425.000000	5.016346
1426.000000	5.078115
1427.000000	4.951909
1428.000000	4.976066
1429.000000	5.151443
1430.000000	5.239326
1431.000000	5.165600
1432.000000	5.163331
1433.000000	5.194374
1434.000000	5.378662
1435.000000	5.617819
1436.000000	5.685624
1437.000000	5.737740
1438.000000	5.808750
1439.000000	6.015508
1440.000000	6.009043
1441.000000	6.086563
1442.000000	6.086737
1443.000000	6.158571
1444.000000	6.280970
1445.000000	6.262790
1446.000000	6.320039
1447.000000	6.354538
1448.000000	6.417652
1449.000000	6.489365
1450.000000	6.501065
1451.000000	6.575293
1452.000000	6.647911
1453.000000	6.774699
1454.000000	6.819370
1455.000000	6.915467
1456.000000	6.941672
1457.000000	6.967385
1458.000000	7.062149
1459.000000	7.094632
1460.000000	7.188234
1461.000000	7.260697
1462.000000	7.345663
1463.000000	7.403696
1464.000000	7.440455
1465.000000	7.498294
1466.000000	7.591020
1467.000000	7.671594
1468.000000	7.731467
1469.000000	7.712116
1470.000000	7.734190
1471.000000	7.791698
1472.000000	7.857433
1473.000000	7.924094
1474.000000	8.000621
1475.000000	8.058408
1476.000000	8.138370
1477.000000	8.216663
1478.000000	8.252410
1479.000000	8.260972
1480.000000	8.369001
1481.000000	8.394430
1482.000000	8.454749
1483.000000	8.496039
1484.000000	8.547870
1485.000000	8.645068
1486.000000	8.645275
1487.000000	8.686640
1488.000000	8.743129
1489.000000	8.757694
1490.000000	8.761770
1491.000000	8.811396
1492.000000	8.869530
1493.000000	8.925309
1494.000000	8.953396
1495.000000	8.949301
1496.000000	8.943978
1497.000000	8.925804
1498.000000	8.960826
1499.000000	9.016771
1500.000000	9.019021
1501.000000	9.011433
1502.000000	9.016874
1503.000000	9.019685
1504.000000	9.063293
1505.000000	9.061368
1506.000000	8.995874
1507.000000	9.008025
1508.000000	8.973727
1509.000000	8.952866
1510.000000	8.949625
1511.000000	8.933639
1512.000000	8.909460
1513.000000	8.875486
1514.000000	8.882306
1515.000000	8.882664
1516.000000	8.843780
1517.000000	8.790785
1518.000000	8.755993
1519.000000	8.720666
1520.000000	8.698411
1521.000000	8.692907
1522.000000	8.664010
1523.000000	8.609111
1524.000000	8.572215
1525.000000	8.543251
1526.000000	8.515781
1527.000000	8.469729
1528.000000	8.426076
1529.000000	8.391657
1530.000000	8.369926
1531.000000	8.346363
1532.000000	8.317617
1533.000000	8.269376
1534.000000	8.223450
1535.000000	8.191997
1536.000000	8.178177
1537.000000	8.131844
1538.000000	8.092798
1539.000000	8.057340
1540.000000	8.047436
1541.000000	8.061699
1542.000000	8.025269
1543.000000	8.014096
1544.000000	7.988359
1545.000000	7.971132
1546.000000	7.955740
1547.000000	7.932713
1548.000000	7.918616
1549.000000	7.883820
1550.000000	7.831535
1551.000000	7.793375
1552.000000	7.774730
1553.000000	7.766727
1554.000000	7.736113
1555.000000	7.674772
1556.000000	7.626352
1557.000000	7.586663
1558.000000	7.560462
1559.000000	7.546461
1560.000000	7.539095
1561.000000	7.510344
1562.000000	7.475746
1563.000000	7.431822
1564.000000	7.394643
1565.000000	7.376821
1566.000000	7.376275
1567.000000	7.360061
1568.000000	7.322732
1569.000000	7.289038
1570.000000	7.254737
1571.000000	7.235132
1572.000000	7.222558
1573.000000	7.195113
1574.000000	7.169060
1575.000000	7.151411
1576.000000	7.132812
1577.000000	7.127267
1578.000000	7.104006
1579.000000	7.087597
1580.000000	7.094714
1581.000000	7.090972
1582.000000	7.077784
1583.000000	7.045854
1584.000000	7.039422
1585.000000	7.048323
1586.000000	7.062774
1587.000000	7.042691
1588.000000	7.006790
1589.000000	6.980131
1590.000000	6.988379
1591.000000	6.991927
1592.000000	6.981212
1593.000000	6.977983
1594.000000	6.977536
1595.000000	6.955080
1596.000000	6.960372
1597.000000	6.961976
1598.000000	6.944077
1599.000000	6.945034
1600.000000	6.924021
1601.000000	6.872944
1602.000000	6.827985
1603.000000	6.800474
1604.000000	6.776366
1605.000000	6.777059
1606.000000	6.738248
1607.000000	6.675570
1608.000000	6.636514
1609.000000	6.613746
1610.000000	6.556565
1611.000000	6.531389
1612.000000	6.497183
1613.000000	6.452271
1614.000000	6.432168
1615.000000	6.381511
1616.000000	6.348998
1617.000000	6.318946
1618.000000	6.306673
1619.000000	6.247849
1620.000000	6.193598
1621.000000	6.148070
1622.000000	6.135990
1623.000000	6.144203
1624.000000	6.189220
1625.000000	6.172564
1626.000000	6.156741
1627.000000	6.160597
1628.000000	6.152061
1629.000000	6.151667
1630.000000	6.141997
1631.000000	6.082141
1632.000000	6.062315
1633.000000	6.075943
1634.000000	6.049279
1635.000000	6.015300
1636.000000	5.988731
1637.000000	5.990699
1638.000000	5.963873
1639.000000	5.964429
1640.000000	5.934203
1641.000000	5.935172
1642.000000	5.906785
1643.000000	5.925124
1644.000000	5.896404
1645.000000	5.903259
1646.000000	5.876696
1647.000000	5.827739
1648.000000	5.853820
1649.000000	5.842731
1650.000000	5.829895
1651.000000	5.761201
1652.000000	5.737674
1653.000000	5.724487
1654.000000	5.734770
1655.000000	5.737045
1656.000000	5.708299
1657.000000	5.677142
1658.000000	5.630239
1659.000000	5.579543
1660.000000	5.559127
1661.000000	5.555539
1662.000000	5.553564
1663.000000	5.544721
1664.000000	5.506521
1665.000000	5.490105
1666.000000	5.526039
1667.000000	5.544230
1668.000000	5.536597
1669.000000	5.576735
1670.000000	5.620057
1671.000000	5.656099
1672.000000	5.677149
1673.000000	5.703515
1674.000000	5.732469
1675.000000	5.796528
1676.000000	5.817621
1677.000000	5.903044
1678.000000	5.922432
1679.000000	5.989979
1680.000000	6.042254
1681.000000	6.097472
1682.000000	6.194745
1683.000000	6.237342
1684.000000	6.285570
1685.000000	6.331952
1686.000000	6.440005
1687.000000	6.539383
1688.000000	6.605455
1689.000000	6.689761
1690.000000	6.737969
1691.000000	6.832235
1692.000000	6.910553
1693.000000	6.989061
1694.000000	7.070576
1695.000000	7.154798
1696.000000	7.218455
1697.000000	7.271271
1698.000000	7.279231
1699.000000	7.349957
1700.000000	7.397129
1701.000000	7.424930
1702.000000	7.461331
1703.000000	7.492142
1704.000000	7.479016
1705.000000	7.490755
1706.000000	7.552039
1707.000000	7.577544
1708.000000	7.627334
1709.000000	7.634742
1710.000000	7.669364
1711.000000	7.699866
1712.000000	7.729591
1713.000000	7.756270
1714.000000	7.769512
1715.000000	7.752907
1716.000000	7.782478
1717.000000	7.789255
1718.000000	7.792789
1719.000000	7.852784
1720.000000	7.895606
1721.000000	7.912693
1722.000000	7.933427
1723.000000	7.920490
1724.000000	7.926786
1725.000000	7.973038
1726.000000	8.020683
1727.000000	8.068126
1728.000000	8.112717
1729.000000	8.137046
1730.000000	8.135830
1731.000000	8.137560
1732.000000	8.150388
1733.000000	8.209307
1734.000000	8.212385
1735.000000	8.233832
1736.000000	8.254767
1737.000000	8.304004
1738.000000	8.346333
1739.000000	8.385807
1740.000000	8.412254
1741.000000	8.402672
1742.000000	8.438764
1743.000000	8.434492
1744.000000	8.464693
1745.000000	8.451610
1746.000000	8.435664
1747.000000	8.413214
1748.000000	8.442856
1749.000000	8.474553
1750.000000	8.515422
1751.000000	8.498631
1752.000000	8.488895
1753.000000	8.490465
1754.000000	8.469644
1755.000000	8.465619
1756.000000	8.444752
1757.000000	8.410879
1758.000000	8.415603
1759.000000	8.389108
1760.000000	8.356774
1761.000000	8.282299
1762.000000	8.245162
1763.000000	8.218705
1764.000000	8.171575
1765.000000	8.169872
1766.000000	8.196714
1767.000000	8.190275
1768.000000	8.177186
1769.000000	8.181079
1770.000000	8.172125
1771.000000	8.176739
1772.000000	8.150432
1773.000000	8.160036
1774.000000	8.152605
1775.000000	8.150942
1776.000000	8.133756
1777.000000	8.109538
1778.000000	8.103917
1779.000000	8.087362
1780.000000	8.077376
1781.000000	8.070852
1782.000000	8.060726
1783.000000	8.030669
1784.000000	7.982217
1785.000000	7.946092
1786.000000	7.932467
1787.000000	7.915604
1788.000000	7.880864
1789.000000	7.838530
1790.000000	7.799552
1791.000000	7.775539
1792.000000	7.762283
1793.000000	7.781082
1794.000000	7.785655
1795.000000	7.791894
1796.000000	7.800626
1797.000000	7.788380
1798.000000	7.790052
1799.000000	7.786606
1800.000000	7.735467
1801.000000	7.665218
1802.000000	7.638507
1803.000000	7.635432
1804.000000	7.598842
1805.000000	7.549106
1806.000000	7.496973
1807.000000	7.467709
1808.000000	7.436926
1809.000000	7.418429
1810.000000	7.360314
1811.000000	7.330695
1812.000000	7.314604
1813.000000	7.331396
1814.000000	7.312819
1815.000000	7.282054
1816.000000	7.278117
1817.000000	7.155862
1818.000000	7.046147
1819.000000	6.945942
1820.000000	6.880785
1821.000000	6.919520
1822.000000	6.967477
1823.000000	6.997349
1824.000000	6.997538
1825.000000	6.844150
1826.000000	6.757150
1827.000000	6.764067
1828.000000	6.736233
1829.000000	6.712968
1830.000000	6.609128
1831.000000	6.569552
1832.000000	6.580349
1833.000000	6.588460
1834.000000	6.563058
1835.000000	6.462232
1836.000000	6.403440
1837.000000	6.411146
1838.000000	6.461588
1839.000000	6.573228
1840.000000	6.715939
1841.000000	6.677957
1842.000000	6.626339
1843.000000	6.624316
1844.000000	6.625063
1845.000000	6.695336
1846.000000	6.670165
1847.000000	6.516952
1848.000000	6.472880
1849.000000	6.466670
1850.000000	6.482971
1851.000000	6.558534
1852.000000	6.699012
1853.000000	6.778339
1854.000000	6.884105
1855.000000	6.927292
1856.000000	6.955770
1857.000000	7.022199
1858.000000	7.050551
1859.000000	7.056288
1860.000000	7.257044
1861.000000	7.373901
1862.000000	7.334895
1863.000000	7.187074
1864.000000	7.162262
1865.000000	7.266050
1866.000000	7.322004
1867.000000	7.280456
1868.000000	7.258179
1869.000000	7.276678
1870.000000	7.238270
1871.000000	7.352302
1872.000000	7.231457
1873.000000	7.175083
1874.000000	7.082865
1875.000000	7.024912
1876.000000	6.960725
1877.000000	7.001699
1878.000000	7.010470
1879.000000	7.089021
1880.000000	7.084984
1881.000000	7.187163
1882.000000	7.404011
1883.000000	7.420205
1884.000000	7.500629
1885.000000	7.613523
1886.000000	7.617614
1887.000000	7.718696
1888.000000	7.852549
1889.000000	7.878533
1890.000000	8.033491
1891.000000	8.051856
1892.000000	8.074114
1893.000000	8.192566
1894.000000	8.355143
1895.000000	8.483927
1896.000000	8.635606
1897.000000	8.819598
1898.000000	9.142922
1899.000000	9.343810
1900.000000	9.570132
1901.000000	9.767879
1902.000000	9.751430
1903.000000	10.002869
1904.000000	10.246444
1905.000000	10.701567
1906.000000	10.907239
1907.000000	11.352317
1908.000000	11.641403
1909.000000	11.968945
1910.000000	12.260136
1911.000000	12.782560
1912.000000	13.163952
1913.000000	13.448482
1914.000000	13.747037
1915.000000	14.040628
1916.000000	14.418715
1917.000000	14.809730
1918.000000	15.263025
1919.000000	15.532610
1920.000000	15.775989
1921.000000	16.179780
1922.000000	16.482054
1923.000000	16.723027
1924.000000	17.162374
1925.000000	17.472702
1926.000000	17.792350
1927.000000	18.120450
1928.000000	18.408150
1929.000000	18.702673
1930.000000	18.943640
1931.000000	19.197764
1932.000000	19.477018
1933.000000	19.706001
1934.000000	19.999270
1935.000000	20.186207
1936.000000	20.429108
1937.000000	20.885375
1938.000000	21.056950
1939.000000	21.281855
1940.000000	21.431419
1941.000000	21.606511
1942.000000	21.715490
1943.000000	21.825716
1944.000000	21.925395
1945.000000	22.021883
1946.000000	22.014430
1947.000000	22.045864
1948.000000	22.170259
1949.000000	22.213639
1950.000000	22.322038
1951.000000	22.297296
1952.000000	22.239296
1953.000000	22.193593
1954.000000	22.266508
1955.000000	22.304592
1956.000000	22.199306
1957.000000	22.198323
1958.000000	22.225598
1959.000000	22.117944
1960.000000	22.051792
1961.000000	22.011194
1962.000000	21.905567
1963.000000	21.817602
1964.000000	21.718403
1965.000000	21.649777
1966.000000	21.606809
1967.000000	21.485640
1968.000000	21.437999
1969.000000	21.307807
1970.000000	21.247558
1971.000000	21.143268
1972.000000	21.077996
1973.000000	20.967920
1974.000000	20.832513
1975.000000	20.719408
1976.000000	20.633267
1977.000000	20.512896
1978.000000	20.426296
1979.000000	20.327421
1980.000000	20.198583
1981.000000	20.123679
1982.000000	20.052365
1983.000000	19.926876
1984.000000	19.821202
1985.000000	19.679985
1986.000000	19.569498
1987.000000	19.476225
1988.000000	19.384033
1989.000000	19.282609
1990.000000	19.192033
1991.000000	19.121410
1992.000000	19.014950
1993.000000	18.943858
1994.000000	18.887106
1995.000000	18.792876
1996.000000	18.697166
1997.000000	18.606218
1998.000000	18.533123
1999.000000	18.464578
2000.000000	18.380462
