PE UV       SUBTECH     SPECTRUM    ASCII       PEDS        4.00        
   -1
CICIMAUCR0113-2.Sample.ASC
24/04/18
15:37:48.00
24/04/18
15:37:48.00
Vinicio Soto Monge
C. kalinini
250,000000
1
Lambda 1050
1050L1511233
PerkinElmer UV WinLab 6.3.2.0749 / 2.02.05 Lambda 900 UV/VIS/NIR, Aug  7 2015 09:38:08

0
0
3350/servo 860,8/2
0
0
UV/VIS
1
1
1
DoubleDePol,CommonBeamDepol,RBeamAtt,SBeamAtt,60mm sphere, WB InGaAs Detector
0
0
0
0
Program
Program
3350/servo 860,8/2
3350/0,2 860,8/0,2
3350/0,2 860,8/0,2
0
15.00
 
 
 
0
 
860,8
319,2
860,8
Front
100
on
S:100 R:100
0
0
0
0
 
0
 
 
 
0
 
 
0
0
0
0
0
 
 
 
 
0
0


0
0
#HDR
-1
-1
#GR
nm
%R
1.0
0.0
2500,000000
-1,000000
2251
8
36,527000
2,130400
#DATA
2482.000000	6.435360
2481.000000	6.492209
2480.000000	6.485103
2479.000000	6.494183
2478.000000	6.508868
2477.000000	6.526555
2476.000000	6.546768
2475.000000	6.532161
2474.000000	6.547873
2473.000000	6.563270
2472.000000	6.593036
2471.000000	6.588220
2470.000000	6.640568
2469.000000	6.680125
2468.000000	6.681705
2467.000000	6.719525
2466.000000	6.755371
2465.000000	6.800929
2464.000000	6.826274
2463.000000	6.868832
2462.000000	6.923549
2461.000000	6.959474
2460.000000	7.005427
2459.000000	7.071040
2458.000000	7.118808
2457.000000	7.158997
2456.000000	7.205661
2455.000000	7.272300
2454.000000	7.311936
2453.000000	7.371943
2452.000000	7.439056
2451.000000	7.493931
2450.000000	7.542253
2449.000000	7.585126
2448.000000	7.648923
2447.000000	7.698113
2446.000000	7.726380
2445.000000	7.776280
2444.000000	7.840235
2443.000000	7.894636
2442.000000	7.940352
2441.000000	7.980620
2440.000000	8.031310
2439.000000	8.092028
2438.000000	8.150929
2437.000000	8.190724
2436.000000	8.231544
2435.000000	8.278602
2434.000000	8.316028
2433.000000	8.376509
2432.000000	8.407538
2431.000000	8.443701
2430.000000	8.481995
2429.000000	8.536238
2428.000000	8.580296
2427.000000	8.613457
2426.000000	8.646066
2425.000000	8.682386
2424.000000	8.732682
2423.000000	8.757553
2422.000000	8.792215
2421.000000	8.808401
2420.000000	8.814402
2419.000000	8.811165
2418.000000	8.829404
2417.000000	8.847643
2416.000000	8.870698
2415.000000	8.890437
2414.000000	8.914045
2413.000000	8.937495
2412.000000	8.938206
2411.000000	8.940259
2410.000000	8.960709
2409.000000	8.977921
2408.000000	8.986054
2407.000000	8.993239
2406.000000	9.005161
2405.000000	9.016294
2404.000000	9.026322
2403.000000	9.032006
2402.000000	9.042350
2401.000000	9.044245
2400.000000	9.041007
2399.000000	9.066432
2398.000000	9.074722
2397.000000	9.063984
2396.000000	9.063826
2395.000000	9.068169
2394.000000	9.070379
2393.000000	9.077880
2392.000000	9.077328
2391.000000	9.058220
2390.000000	9.052219
2389.000000	9.062484
2388.000000	9.044718
2387.000000	9.045271
2386.000000	9.038323
2385.000000	9.030980
2384.000000	9.006898
2383.000000	8.984632
2382.000000	8.989923
2381.000000	8.971289
2380.000000	8.947602
2379.000000	8.938917
2378.000000	8.936706
2377.000000	8.918467
2376.000000	8.885858
2375.000000	8.870145
2374.000000	8.853959
2373.000000	8.834141
2372.000000	8.810691
2371.000000	8.800821
2370.000000	8.772002
2369.000000	8.742630
2368.000000	8.732682
2367.000000	8.711206
2366.000000	8.672754
2365.000000	8.639039
2364.000000	8.608720
2363.000000	8.593323
2362.000000	8.572953
2361.000000	8.548397
2360.000000	8.521947
2359.000000	8.495812
2358.000000	8.474494
2357.000000	8.447491
2356.000000	8.430278
2355.000000	8.406591
2354.000000	8.392853
2353.000000	8.390563
2352.000000	8.384167
2351.000000	8.357796
2350.000000	8.343505
2349.000000	8.351795
2348.000000	8.355269
2347.000000	8.346189
2346.000000	8.343820
2345.000000	8.339873
2344.000000	8.333398
2343.000000	8.324950
2342.000000	8.314449
2341.000000	8.294473
2340.000000	8.282155
2339.000000	8.268575
2338.000000	8.252389
2337.000000	8.252231
2336.000000	8.227280
2335.000000	8.203357
2334.000000	8.191987
2333.000000	8.166879
2332.000000	8.136480
2331.000000	8.126374
2330.000000	8.111925
2329.000000	8.109793
2328.000000	8.080658
2327.000000	8.055155
2326.000000	8.048128
2325.000000	8.025388
2324.000000	8.025704
2323.000000	7.997438
2322.000000	7.971382
2321.000000	7.956380
2320.000000	7.925982
2319.000000	7.911454
2318.000000	7.869528
2317.000000	7.856421
2316.000000	7.837551
2315.000000	7.824602
2314.000000	7.787097
2313.000000	7.774385
2312.000000	7.779596
2311.000000	7.762542
2310.000000	7.750619
2309.000000	7.752988
2308.000000	7.743592
2307.000000	7.748330
2306.000000	7.772411
2305.000000	7.813074
2304.000000	7.808416
2303.000000	7.851921
2302.000000	7.869291
2301.000000	7.892583
2300.000000	7.925271
2299.000000	7.957880
2298.000000	7.992306
2297.000000	8.003912
2296.000000	8.033442
2295.000000	8.035179
2294.000000	8.040390
2293.000000	8.061787
2292.000000	8.082553
2291.000000	8.082237
2290.000000	8.061235
2289.000000	8.065025
2288.000000	8.056576
2287.000000	8.026968
2286.000000	8.002570
2285.000000	7.984568
2284.000000	7.979515
2283.000000	7.933088
2282.000000	7.906559
2281.000000	7.879398
2280.000000	7.875450
2279.000000	7.827444
2278.000000	7.790808
2277.000000	7.759778
2276.000000	7.758436
2275.000000	7.716589
2274.000000	7.706404
2273.000000	7.705535
2272.000000	7.710825
2271.000000	7.717931
2270.000000	7.705614
2269.000000	7.732459
2268.000000	7.765621
2267.000000	7.813153
2266.000000	7.840630
2265.000000	7.918560
2264.000000	7.996490
2263.000000	8.064551
2262.000000	8.125979
2261.000000	8.219385
2260.000000	8.297315
2259.000000	8.396327
2258.000000	8.472915
2257.000000	8.582191
2256.000000	8.679465
2255.000000	8.781477
2254.000000	8.876462
2253.000000	8.952655
2252.000000	9.046534
2251.000000	9.123280
2250.000000	9.235715
2249.000000	9.273772
2248.000000	9.360782
2247.000000	9.443449
2246.000000	9.524775
2245.000000	9.581781
2244.000000	9.616917
2243.000000	9.685609
2242.000000	9.736457
2241.000000	9.805150
2240.000000	9.853550
2239.000000	9.888607
2238.000000	9.931322
2237.000000	9.979881
2236.000000	10.005700
2235.000000	10.048415
2234.000000	10.049047
2233.000000	10.074708
2232.000000	10.102658
2231.000000	10.143479
2230.000000	10.168271
2229.000000	10.164481
2228.000000	10.166929
2227.000000	10.158323
2226.000000	10.172851
2225.000000	10.189826
2224.000000	10.196932
2223.000000	10.212013
2222.000000	10.195590
2221.000000	10.203881
2220.000000	10.173640
2219.000000	10.184931
2218.000000	10.120502
2217.000000	10.143084
2216.000000	10.121450
2215.000000	10.115291
2214.000000	10.095394
2213.000000	10.089473
2212.000000	10.073839
2211.000000	10.065786
2210.000000	10.059469
2209.000000	10.033255
2208.000000	10.029544
2207.000000	10.011148
2206.000000	9.987776
2205.000000	9.988171
2204.000000	9.973248
2203.000000	9.955957
2202.000000	9.934165
2201.000000	9.911267
2200.000000	9.920584
2199.000000	9.904872
2198.000000	9.890739
2197.000000	9.891291
2196.000000	9.866973
2195.000000	9.834127
2194.000000	9.835311
2193.000000	9.826863
2192.000000	9.816046
2191.000000	9.826231
2190.000000	9.803492
2189.000000	9.800965
2188.000000	9.785095
2187.000000	9.792122
2186.000000	9.755407
2185.000000	9.757302
2184.000000	9.763934
2183.000000	9.775383
2182.000000	9.755723
2181.000000	9.753986
2180.000000	9.729825
2179.000000	9.710007
2178.000000	9.710639
2177.000000	9.738826
2176.000000	9.736931
2175.000000	9.725009
2174.000000	9.714902
2173.000000	9.720587
2172.000000	9.737958
2171.000000	9.742695
2170.000000	9.735905
2169.000000	9.724456
2168.000000	9.727930
2167.000000	9.762908
2166.000000	9.762434
2165.000000	9.768356
2164.000000	9.765592
2163.000000	9.784068
2162.000000	9.784226
2161.000000	9.776331
2160.000000	9.777673
2159.000000	9.801912
2158.000000	9.806650
2157.000000	9.807755
2156.000000	9.796386
2155.000000	9.805623
2154.000000	9.816756
2153.000000	9.824810
2152.000000	9.828916
2151.000000	9.837601
2150.000000	9.833337
2149.000000	9.840917
2148.000000	9.842575
2147.000000	9.834206
2146.000000	9.842338
2145.000000	9.844549
2144.000000	9.841707
2143.000000	9.841786
2142.000000	9.858051
2141.000000	9.857972
2140.000000	9.847155
2139.000000	9.838785
2138.000000	9.827573
2137.000000	9.826942
2136.000000	9.808308
2135.000000	9.768040
2134.000000	9.760381
2133.000000	9.755091
2132.000000	9.732746
2131.000000	9.686320
2130.000000	9.664765
2129.000000	9.665318
2128.000000	9.641394
2127.000000	9.605074
2126.000000	9.586598
2125.000000	9.558884
2124.000000	9.514274
2123.000000	9.493982
2122.000000	9.469505
2121.000000	9.432948
2120.000000	9.409419
2119.000000	9.379337
2118.000000	9.356123
2117.000000	9.330699
2116.000000	9.287273
2115.000000	9.276614
2114.000000	9.249769
2113.000000	9.222766
2112.000000	9.201447
2111.000000	9.163390
2110.000000	9.143019
2109.000000	9.114832
2108.000000	9.092092
2107.000000	9.076933
2106.000000	9.051509
2105.000000	9.022058
2104.000000	9.002871
2103.000000	8.986212
2102.000000	8.983053
2101.000000	8.980211
2100.000000	8.963709
2099.000000	8.939469
2098.000000	8.917677
2097.000000	8.926757
2096.000000	8.930547
2095.000000	8.910413
2094.000000	8.899201
2093.000000	8.901965
2092.000000	8.898175
2091.000000	8.893990
2090.000000	8.893438
2089.000000	8.872356
2088.000000	8.862408
2087.000000	8.874883
2086.000000	8.861065
2085.000000	8.849222
2084.000000	8.840142
2083.000000	8.834062
2082.000000	8.833509
2081.000000	8.841958
2080.000000	8.831378
2079.000000	8.818429
2078.000000	8.823877
2077.000000	8.801532
2076.000000	8.794031
2075.000000	8.797268
2074.000000	8.777608
2073.000000	8.780766
2072.000000	8.778871
2071.000000	8.765844
2070.000000	8.765370
2069.000000	8.763475
2068.000000	8.749736
2067.000000	8.752421
2066.000000	8.761264
2065.000000	8.764107
2064.000000	8.763080
2063.000000	8.758264
2062.000000	8.751868
2061.000000	8.747763
2060.000000	8.767897
2059.000000	8.769949
2058.000000	8.784162
2057.000000	8.799874
2056.000000	8.795373
2055.000000	8.816850
2054.000000	8.852933
2053.000000	8.878752
2052.000000	8.900781
2051.000000	8.938206
2050.000000	8.973184
2049.000000	9.014873
2048.000000	9.066668
2047.000000	9.120675
2046.000000	9.174523
2045.000000	9.246611
2044.000000	9.287984
2043.000000	9.343490
2042.000000	9.404919
2041.000000	9.447476
2040.000000	9.490271
2039.000000	9.550751
2038.000000	9.599389
2037.000000	9.649052
2036.000000	9.709691
2035.000000	9.756591
2034.000000	9.795359
2033.000000	9.838154
2032.000000	9.878421
2031.000000	9.921611
2030.000000	9.952167
2029.000000	9.974749
2028.000000	9.991566
2027.000000	10.018254
2026.000000	10.055837
2025.000000	10.075181
2024.000000	10.095789
2023.000000	10.121766
2022.000000	10.155954
2021.000000	10.183510
2020.000000	10.176088
2019.000000	10.187458
2018.000000	10.220935
2017.000000	10.231437
2016.000000	10.254097
2015.000000	10.263098
2014.000000	10.233016
2013.000000	10.243675
2012.000000	10.256545
2011.000000	10.253939
2010.000000	10.252676
2009.000000	10.221330
2008.000000	10.224567
2007.000000	10.214461
2006.000000	10.198038
2005.000000	10.187695
2004.000000	10.164560
2003.000000	10.153822
2002.000000	10.151217
2001.000000	10.103527
2000.000000	10.076997
1999.000000	10.066101
1998.000000	10.038861
1997.000000	10.007673
1996.000000	9.960931
1995.000000	9.924137
1994.000000	9.892555
1993.000000	9.862314
1992.000000	9.834443
1991.000000	9.796938
1990.000000	9.764092
1989.000000	9.740642
1988.000000	9.678266
1987.000000	9.627339
1986.000000	9.566622
1985.000000	9.534565
1984.000000	9.504878
1983.000000	9.467610
1982.000000	9.421894
1981.000000	9.379810
1980.000000	9.343332
1979.000000	9.277325
1978.000000	9.234925
1977.000000	9.211870
1976.000000	9.139545
1975.000000	9.110331
1974.000000	9.070379
1973.000000	9.043613
1972.000000	8.990791
1971.000000	8.948865
1970.000000	8.935600
1969.000000	8.866355
1968.000000	8.818350
1967.000000	8.782661
1966.000000	8.756922
1965.000000	8.724312
1964.000000	8.696599
1963.000000	8.665332
1962.000000	8.619379
1961.000000	8.579585
1960.000000	8.535764
1959.000000	8.479626
1958.000000	8.462019
1957.000000	8.425383
1956.000000	8.388036
1955.000000	8.354716
1954.000000	8.306000
1953.000000	8.256968
1952.000000	8.221675
1951.000000	8.213068
1950.000000	8.186934
1949.000000	8.155193
1948.000000	8.118399
1947.000000	8.100397
1946.000000	8.075842
1945.000000	8.059656
1944.000000	8.033442
1943.000000	8.023809
1942.000000	8.017888
1941.000000	8.036916
1940.000000	8.055708
1939.000000	8.048444
1938.000000	8.017019
1937.000000	8.012282
1936.000000	8.005807
1935.000000	8.004149
1934.000000	8.015361
1933.000000	8.036758
1932.000000	8.075289
1931.000000	8.126374
1930.000000	8.170195
1929.000000	8.199172
1928.000000	8.227044
1927.000000	8.255863
1926.000000	8.300552
1925.000000	8.324002
1924.000000	8.356217
1923.000000	8.488390
1922.000000	8.594192
1921.000000	8.641013
1920.000000	8.657594
1919.000000	8.697309
1918.000000	8.761422
1917.000000	8.835325
1916.000000	8.984553
1915.000000	9.154942
1914.000000	9.255138
1913.000000	9.323751
1912.000000	9.412262
1911.000000	9.484428
1910.000000	9.591572
1909.000000	9.770330
1908.000000	9.955009
1907.000000	10.123582
1906.000000	10.285443
1905.000000	10.424801
1904.000000	10.558949
1903.000000	10.680937
1902.000000	10.874301
1901.000000	11.101460
1900.000000	11.259452
1899.000000	11.370781
1898.000000	11.491032
1897.000000	11.634654
1896.000000	11.805437
1895.000000	12.042465
1894.000000	12.256042
1893.000000	12.450749
1892.000000	12.635903
1891.000000	12.812529
1890.000000	12.970995
1889.000000	13.124249
1888.000000	13.302376
1887.000000	13.498583
1886.000000	13.711687
1885.000000	13.908447
1884.000000	14.071255
1883.000000	14.243223
1882.000000	14.438404
1881.000000	14.609739
1880.000000	14.813842
1879.000000	15.038158
1878.000000	15.231049
1877.000000	15.417703
1876.000000	15.619358
1875.000000	15.813354
1874.000000	15.974505
1873.000000	16.128470
1872.000000	16.246510
1871.000000	16.309044
1870.000000	16.285673
1869.000000	16.255274
1868.000000	16.214296
1867.000000	16.165975
1866.000000	16.188398
1865.000000	16.185872
1864.000000	16.187135
1863.000000	16.251406
1862.000000	16.318282
1861.000000	16.375210
1860.000000	16.408213
1859.000000	16.415872
1858.000000	16.389027
1857.000000	16.360761
1856.000000	16.387053
1855.000000	16.384211
1854.000000	16.311334
1853.000000	16.253379
1852.000000	16.218718
1851.000000	16.223376
1850.000000	16.308175
1849.000000	16.396686
1848.000000	16.331626
1847.000000	16.172844
1846.000000	16.037986
1845.000000	15.983032
1844.000000	16.040355
1843.000000	16.128628
1842.000000	16.131155
1841.000000	16.057646
1840.000000	16.018957
1839.000000	16.027800
1838.000000	16.031353
1837.000000	15.973794
1836.000000	15.860807
1835.000000	15.731397
1834.000000	15.657099
1833.000000	15.656704
1832.000000	15.675496
1831.000000	15.661836
1830.000000	15.600724
1829.000000	15.546244
1828.000000	15.508819
1827.000000	15.472972
1826.000000	15.398832
1825.000000	15.338272
1824.000000	15.322718
1823.000000	15.387225
1822.000000	15.466419
1821.000000	15.434441
1820.000000	15.347984
1819.000000	15.274949
1818.000000	15.275028
1817.000000	15.317586
1816.000000	15.293741
1815.000000	15.253552
1814.000000	15.243603
1813.000000	15.258763
1812.000000	15.277712
1811.000000	15.244393
1810.000000	15.193387
1809.000000	15.169226
1808.000000	15.171990
1807.000000	15.175858
1806.000000	15.140170
1805.000000	15.106298
1804.000000	15.081663
1803.000000	15.090269
1802.000000	15.089006
1801.000000	15.054818
1800.000000	15.018498
1799.000000	14.995679
1798.000000	14.990468
1797.000000	14.962518
1796.000000	14.945463
1795.000000	14.914512
1794.000000	14.881508
1793.000000	14.875823
1792.000000	14.859953
1791.000000	14.838872
1790.000000	14.830344
1789.000000	14.803183
1788.000000	14.789287
1787.000000	14.774443
1786.000000	14.762363
1785.000000	14.716410
1784.000000	14.704487
1783.000000	14.660509
1782.000000	14.632795
1781.000000	14.623320
1780.000000	14.594738
1779.000000	14.561023
1778.000000	14.517439
1777.000000	14.479698
1776.000000	14.431929
1775.000000	14.388819
1774.000000	14.338444
1773.000000	14.286965
1772.000000	14.226089
1771.000000	14.169398
1770.000000	14.117524
1769.000000	14.069992
1768.000000	14.030119
1767.000000	13.980613
1766.000000	13.937740
1765.000000	13.916026
1764.000000	13.895893
1763.000000	13.885786
1762.000000	13.898024
1761.000000	13.897945
1760.000000	13.907736
1759.000000	13.923369
1758.000000	13.947609
1757.000000	13.962690
1756.000000	13.971454
1755.000000	13.981955
1754.000000	13.973586
1753.000000	13.973112
1752.000000	13.969954
1751.000000	13.961900
1750.000000	13.922343
1749.000000	13.899761
1748.000000	13.862020
1747.000000	13.821279
1746.000000	13.773352
1745.000000	13.712239
1744.000000	13.644968
1743.000000	13.585514
1742.000000	13.499135
1741.000000	13.389938
1740.000000	13.311535
1739.000000	13.234789
1738.000000	13.158596
1737.000000	13.062663
1736.000000	13.014500
1735.000000	12.976206
1734.000000	12.961757
1733.000000	12.953387
1732.000000	12.947781
1731.000000	12.951966
1730.000000	12.997603
1729.000000	13.036529
1728.000000	13.061953
1727.000000	13.083034
1726.000000	13.107905
1725.000000	13.124565
1724.000000	13.136804
1723.000000	13.157095
1722.000000	13.161675
1721.000000	13.185599
1720.000000	13.192547
1719.000000	13.220024
1718.000000	13.247580
1717.000000	13.306323
1716.000000	13.324957
1715.000000	13.379911
1714.000000	13.425153
1713.000000	13.441971
1712.000000	13.480818
1711.000000	13.507742
1710.000000	13.527165
1709.000000	13.535534
1708.000000	13.547378
1707.000000	13.556695
1706.000000	13.563959
1705.000000	13.537272
1704.000000	13.497477
1703.000000	13.489977
1702.000000	13.442918
1701.000000	13.394123
1700.000000	13.346433
1699.000000	13.291953
1698.000000	13.237078
1697.000000	13.205496
1696.000000	13.184414
1695.000000	13.182440
1694.000000	13.210470
1693.000000	13.248527
1692.000000	13.309640
1691.000000	13.355750
1690.000000	13.414652
1689.000000	13.438497
1688.000000	13.459341
1687.000000	13.472053
1686.000000	13.482555
1685.000000	13.506557
1684.000000	13.562064
1683.000000	13.671182
1682.000000	13.804224
1681.000000	14.001931
1680.000000	14.223957
1679.000000	14.451431
1678.000000	14.641164
1677.000000	14.841951
1676.000000	15.015655
1675.000000	15.188728
1674.000000	15.307716
1673.000000	15.443363
1672.000000	15.539454
1671.000000	15.647624
1670.000000	15.726028
1669.000000	15.806327
1668.000000	15.890495
1667.000000	15.956266
1666.000000	16.010035
1665.000000	16.068700
1664.000000	16.131155
1663.000000	16.175607
1662.000000	16.206084
1661.000000	16.238694
1660.000000	16.268144
1659.000000	16.299806
1658.000000	16.333757
1657.000000	16.348838
1656.000000	16.357839
1655.000000	16.380658
1654.000000	16.391080
1653.000000	16.389185
1652.000000	16.393843
1651.000000	16.391948
1650.000000	16.371735
1649.000000	16.364787
1648.000000	16.340311
1647.000000	16.304622
1646.000000	16.295148
1645.000000	16.279198
1644.000000	16.239167
1643.000000	16.228192
1642.000000	16.206006
1641.000000	16.179476
1640.000000	16.164869
1639.000000	16.132260
1638.000000	16.108731
1637.000000	16.095940
1636.000000	16.076990
1635.000000	16.042723
1634.000000	15.998271
1633.000000	15.948212
1632.000000	15.918209
1631.000000	15.875493
1630.000000	15.851174
1629.000000	15.811459
1628.000000	15.775771
1627.000000	15.740319
1626.000000	15.688998
1625.000000	15.654651
1624.000000	15.633649
1623.000000	15.592749
1622.000000	15.544665
1621.000000	15.500607
1620.000000	15.460339
1619.000000	15.404833
1618.000000	15.365196
1617.000000	15.323586
1616.000000	15.298083
1615.000000	15.251657
1614.000000	15.208231
1613.000000	15.159041
1612.000000	15.121299
1611.000000	15.092480
1610.000000	15.040764
1609.000000	14.990705
1608.000000	14.952727
1607.000000	14.923592
1606.000000	14.877008
1605.000000	14.819606
1604.000000	14.777048
1603.000000	14.731412
1602.000000	14.686012
1601.000000	14.626241
1600.000000	14.573025
1599.000000	14.532757
1598.000000	14.484040
1597.000000	14.450484
1596.000000	14.421191
1595.000000	14.385739
1594.000000	14.359210
1593.000000	14.323916
1592.000000	14.285622
1591.000000	14.252224
1590.000000	14.222773
1589.000000	14.195691
1588.000000	14.174688
1587.000000	14.157476
1586.000000	14.137658
1585.000000	14.110181
1584.000000	14.084046
1583.000000	14.069281
1582.000000	14.063439
1581.000000	14.051358
1580.000000	14.030198
1579.000000	14.018907
1578.000000	14.022144
1577.000000	14.023013
1576.000000	14.014327
1575.000000	14.017091
1574.000000	14.025618
1573.000000	14.026408
1572.000000	14.017328
1571.000000	14.009985
1570.000000	14.032724
1569.000000	14.049858
1568.000000	14.047252
1567.000000	14.055543
1566.000000	14.058227
1565.000000	14.072676
1564.000000	14.096127
1563.000000	14.114050
1562.000000	14.123603
1561.000000	14.127946
1560.000000	14.125577
1559.000000	14.118787
1558.000000	14.131973
1557.000000	14.140263
1556.000000	14.124393
1555.000000	14.100943
1554.000000	14.085862
1553.000000	14.080730
1552.000000	14.074650
1551.000000	14.068571
1550.000000	14.057043
1549.000000	14.042989
1548.000000	14.025066
1547.000000	14.016854
1546.000000	14.014012
1545.000000	13.997352
1544.000000	13.984640
1543.000000	13.980139
1542.000000	13.981008
1541.000000	13.972717
1540.000000	13.968296
1539.000000	13.960163
1538.000000	13.952662
1537.000000	13.952425
1536.000000	13.945793
1535.000000	13.945083
1534.000000	13.942635
1533.000000	13.947767
1532.000000	13.945951
1531.000000	13.929844
1530.000000	13.906868
1529.000000	13.893524
1528.000000	13.900393
1527.000000	13.894155
1526.000000	13.895893
1525.000000	13.892339
1524.000000	13.869047
1523.000000	13.848676
1522.000000	13.829411
1521.000000	13.816225
1520.000000	13.800513
1519.000000	13.775721
1518.000000	13.751165
1517.000000	13.735532
1516.000000	13.721004
1515.000000	13.711134
1514.000000	13.691632
1513.000000	13.665181
1512.000000	13.643468
1511.000000	13.637468
1510.000000	13.621281
1509.000000	13.585751
1508.000000	13.551879
1507.000000	13.533403
1506.000000	13.515558
1505.000000	13.495898
1504.000000	13.480502
1503.000000	13.456894
1502.000000	13.444103
1501.000000	13.434944
1500.000000	13.423337
1499.000000	13.427443
1498.000000	13.414020
1497.000000	13.410546
1496.000000	13.392307
1495.000000	13.373673
1494.000000	13.368225
1493.000000	13.373358
1492.000000	13.374937
1491.000000	13.366646
1490.000000	13.354013
1489.000000	13.355513
1488.000000	13.383069
1487.000000	13.386385
1486.000000	13.392702
1485.000000	13.397992
1484.000000	13.391518
1483.000000	13.407941
1482.000000	13.432733
1481.000000	13.461947
1480.000000	13.467000
1479.000000	13.479791
1478.000000	13.512242
1477.000000	13.536482
1476.000000	13.551247
1475.000000	13.590251
1474.000000	13.601542
1473.000000	13.635178
1472.000000	13.666050
1471.000000	13.717214
1470.000000	13.734426
1469.000000	13.749428
1468.000000	13.777458
1467.000000	13.827832
1466.000000	13.857283
1465.000000	13.882312
1464.000000	13.915948
1463.000000	13.947609
1462.000000	14.003510
1461.000000	14.045594
1460.000000	14.090521
1459.000000	14.131262
1458.000000	14.185190
1457.000000	14.257435
1456.000000	14.305520
1455.000000	14.342471
1454.000000	14.399873
1453.000000	14.460827
1452.000000	14.538915
1451.000000	14.591027
1450.000000	14.635242
1449.000000	14.690354
1448.000000	14.737649
1447.000000	14.828844
1446.000000	14.890667
1445.000000	14.937330
1444.000000	14.989442
1443.000000	15.091217
1442.000000	15.163699
1441.000000	15.232628
1440.000000	15.283318
1439.000000	15.372145
1438.000000	15.445495
1437.000000	15.516004
1436.000000	15.575221
1435.000000	15.655046
1434.000000	15.762585
1433.000000	15.828514
1432.000000	15.921841
1431.000000	15.971899
1430.000000	16.068858
1429.000000	16.162579
1428.000000	16.255196
1427.000000	16.362813
1426.000000	16.476037
1425.000000	16.599210
1424.000000	16.724593
1423.000000	16.840975
1422.000000	16.945197
1421.000000	17.103742
1420.000000	17.286843
1419.000000	17.410805
1418.000000	17.515501
1417.000000	17.638674
1416.000000	17.778506
1415.000000	17.946525
1414.000000	18.074277
1413.000000	18.181342
1412.000000	18.331834
1411.000000	18.485957
1410.000000	18.673558
1409.000000	18.823260
1408.000000	18.994438
1407.000000	19.171380
1406.000000	19.374851
1405.000000	19.555346
1404.000000	19.701810
1403.000000	19.848196
1402.000000	20.067853
1401.000000	20.258218
1400.000000	20.409893
1399.000000	20.493113
1398.000000	20.600968
1397.000000	20.766540
1396.000000	20.892871
1395.000000	20.949325
1394.000000	21.013438
1393.000000	21.099974
1392.000000	21.188484
1391.000000	21.224410
1390.000000	21.304314
1389.000000	21.446278
1388.000000	21.594558
1387.000000	21.686227
1386.000000	21.813584
1385.000000	21.970550
1384.000000	22.145991
1383.000000	22.279507
1382.000000	22.399758
1381.000000	22.464108
1380.000000	22.463476
1379.000000	22.498770
1378.000000	22.502165
1377.000000	22.530826
1376.000000	22.562014
1375.000000	22.621231
1374.000000	22.704452
1373.000000	22.818386
1372.000000	22.979142
1371.000000	23.111236
1370.000000	23.203458
1369.000000	23.329946
1368.000000	23.444354
1367.000000	23.498755
1366.000000	23.574159
1365.000000	23.673881
1364.000000	23.745732
1363.000000	23.801870
1362.000000	23.897328
1361.000000	23.952124
1360.000000	23.955046
1359.000000	23.984260
1358.000000	24.014737
1357.000000	24.059584
1356.000000	24.148647
1355.000000	24.297244
1354.000000	24.454604
1353.000000	24.614413
1352.000000	24.795065
1351.000000	24.957400
1350.000000	25.125499
1349.000000	25.276148
1348.000000	25.425613
1347.000000	25.565208
1346.000000	25.690591
1345.000000	25.802473
1344.000000	25.928251
1343.000000	26.031605
1342.000000	26.136144
1341.000000	26.234602
1340.000000	26.337404
1339.000000	26.429231
1338.000000	26.500607
1337.000000	26.587065
1336.000000	26.658994
1335.000000	26.724291
1334.000000	26.793852
1333.000000	26.854333
1332.000000	26.917261
1331.000000	26.972294
1330.000000	27.018721
1329.000000	27.065384
1328.000000	27.108258
1327.000000	27.152000
1326.000000	27.195189
1325.000000	27.235694
1324.000000	27.259460
1323.000000	27.294832
1322.000000	27.328547
1321.000000	27.353655
1320.000000	27.375052
1319.000000	27.400871
1318.000000	27.424716
1317.000000	27.444929
1316.000000	27.463404
1315.000000	27.474932
1314.000000	27.482749
1313.000000	27.502330
1312.000000	27.518753
1311.000000	27.533518
1310.000000	27.545993
1309.000000	27.548757
1308.000000	27.549862
1307.000000	27.554441
1306.000000	27.552783
1305.000000	27.544572
1304.000000	27.540703
1303.000000	27.536439
1302.000000	27.536281
1301.000000	27.532492
1300.000000	27.523254
1299.000000	27.514489
1298.000000	27.508962
1297.000000	27.487881
1296.000000	27.471379
1295.000000	27.464273
1294.000000	27.451403
1293.000000	27.435849
1292.000000	27.416188
1291.000000	27.412477
1290.000000	27.394475
1289.000000	27.373631
1288.000000	27.354444
1287.000000	27.326888
1286.000000	27.296727
1285.000000	27.264197
1284.000000	27.235615
1283.000000	27.204900
1282.000000	27.182714
1281.000000	27.165264
1280.000000	27.129497
1279.000000	27.098704
1278.000000	27.074148
1277.000000	27.037907
1276.000000	27.015089
1275.000000	27.003245
1274.000000	26.984769
1273.000000	26.961477
1272.000000	26.946712
1271.000000	26.932658
1270.000000	26.915209
1269.000000	26.904234
1268.000000	26.892943
1267.000000	26.870440
1266.000000	26.845332
1265.000000	26.836094
1264.000000	26.822198
1263.000000	26.802695
1262.000000	26.786825
1261.000000	26.781219
1260.000000	26.759901
1259.000000	26.739372
1258.000000	26.721370
1257.000000	26.690103
1256.000000	26.673049
1255.000000	26.662626
1254.000000	26.638545
1253.000000	26.612884
1252.000000	26.594013
1251.000000	26.561325
1250.000000	26.521373
1249.000000	26.492633
1248.000000	26.475736
1247.000000	26.433652
1246.000000	26.393384
1245.000000	26.358091
1244.000000	26.316717
1243.000000	26.274476
1242.000000	26.226944
1241.000000	26.187623
1240.000000	26.136538
1239.000000	26.091296
1238.000000	26.040369
1237.000000	25.992995
1236.000000	25.935673
1235.000000	25.879535
1234.000000	25.830976
1233.000000	25.789603
1232.000000	25.725885
1231.000000	25.671089
1230.000000	25.619057
1229.000000	25.568130
1228.000000	25.506149
1227.000000	25.444484
1226.000000	25.389451
1225.000000	25.341366
1224.000000	25.285939
1223.000000	25.230116
1222.000000	25.178479
1221.000000	25.110813
1220.000000	25.061228
1219.000000	25.002011
1218.000000	24.948320
1217.000000	24.897472
1216.000000	24.840702
1215.000000	24.793960
1214.000000	24.738295
1213.000000	24.703239
1212.000000	24.656575
1211.000000	24.617334
1210.000000	24.575724
1209.000000	24.543273
1208.000000	24.513348
1207.000000	24.486661
1206.000000	24.451762
1205.000000	24.434076
1204.000000	24.400124
1203.000000	24.390965
1202.000000	24.363173
1201.000000	24.328511
1200.000000	24.306245
1199.000000	24.276399
1198.000000	24.228551
1197.000000	24.179440
1196.000000	24.111301
1195.000000	24.028475
1194.000000	23.915725
1193.000000	23.793185
1192.000000	23.658327
1191.000000	23.522363
1190.000000	23.373135
1189.000000	23.270887
1188.000000	23.165953
1187.000000	23.099945
1186.000000	23.092997
1185.000000	23.095682
1184.000000	23.173059
1183.000000	23.282414
1182.000000	23.390506
1181.000000	23.528759
1180.000000	23.680671
1179.000000	23.807792
1178.000000	23.921015
1177.000000	24.012210
1176.000000	24.101747
1175.000000	24.193890
1174.000000	24.262977
1173.000000	24.363094
1172.000000	24.451604
1171.000000	24.556853
1170.000000	24.643863
1169.000000	24.738059
1168.000000	24.835175
1167.000000	24.940345
1166.000000	25.039594
1165.000000	25.150528
1164.000000	25.254830
1163.000000	25.341840
1162.000000	25.452300
1161.000000	25.555497
1160.000000	25.654508
1159.000000	25.743255
1158.000000	25.835319
1157.000000	25.918697
1156.000000	25.972466
1155.000000	26.011708
1154.000000	26.055766
1153.000000	26.069504
1152.000000	26.078110
1151.000000	26.098718
1150.000000	26.099034
1149.000000	26.093112
1148.000000	26.086006
1147.000000	26.099429
1146.000000	26.114667
1145.000000	26.147355
1144.000000	26.209100
1143.000000	26.237761
1142.000000	26.313243
1141.000000	26.370329
1140.000000	26.450865
1139.000000	26.510951
1138.000000	26.595197
1137.000000	26.670364
1136.000000	26.755795
1135.000000	26.835857
1134.000000	26.908813
1133.000000	26.952002
1132.000000	27.001350
1131.000000	27.053699
1130.000000	27.073122
1129.000000	27.110547
1128.000000	27.147262
1127.000000	27.160843
1126.000000	27.182477
1125.000000	27.201979
1124.000000	27.198663
1123.000000	27.195978
1122.000000	27.191241
1121.000000	27.183108
1120.000000	27.179634
1119.000000	27.171186
1118.000000	27.161316
1117.000000	27.130050
1116.000000	27.110705
1115.000000	27.101151
1114.000000	27.092387
1113.000000	27.071069
1112.000000	27.034275
1111.000000	27.016905
1110.000000	27.006009
1109.000000	26.974979
1108.000000	26.952239
1107.000000	26.935264
1106.000000	26.923104
1105.000000	26.904707
1104.000000	26.865071
1103.000000	26.853386
1102.000000	26.832936
1101.000000	26.809328
1100.000000	26.783746
1099.000000	26.768349
1098.000000	26.745136
1097.000000	26.711185
1096.000000	26.679365
1095.000000	26.665785
1094.000000	26.640913
1093.000000	26.594329
1092.000000	26.559746
1091.000000	26.532427
1090.000000	26.513398
1089.000000	26.490738
1088.000000	26.443680
1087.000000	26.408702
1086.000000	26.379646
1085.000000	26.352958
1084.000000	26.313243
1083.000000	26.273054
1082.000000	26.250157
1081.000000	26.222127
1080.000000	26.188966
1079.000000	26.158962
1078.000000	26.122089
1077.000000	26.077400
1076.000000	26.053002
1075.000000	26.016998
1074.000000	25.978625
1073.000000	25.958254
1072.000000	25.917118
1071.000000	25.886483
1070.000000	25.859085
1069.000000	25.824976
1068.000000	25.797972
1067.000000	25.762284
1066.000000	25.726675
1065.000000	25.691539
1064.000000	25.662641
1063.000000	25.633190
1062.000000	25.607529
1061.000000	25.569630
1060.000000	25.538995
1059.000000	25.505043
1058.000000	25.463986
1057.000000	25.433588
1056.000000	25.406742
1055.000000	25.379897
1054.000000	25.338919
1053.000000	25.303862
1052.000000	25.272516
1051.000000	25.242749
1050.000000	25.213772
1049.000000	25.172636
1048.000000	25.149896
1047.000000	25.119340
1046.000000	25.084283
1045.000000	25.053332
1044.000000	25.014723
1043.000000	24.979034
1042.000000	24.958111
1041.000000	24.926765
1040.000000	24.894866
1039.000000	24.861468
1038.000000	24.821989
1037.000000	24.781564
1036.000000	24.760166
1035.000000	24.729136
1034.000000	24.691632
1033.000000	24.659023
1032.000000	24.618518
1031.000000	24.585909
1030.000000	24.539562
1029.000000	24.498267
1028.000000	24.457920
1027.000000	24.415837
1026.000000	24.381412
1025.000000	24.345723
1024.000000	24.303008
1023.000000	24.261318
1022.000000	24.222472
1021.000000	24.171387
1020.000000	24.139962
1019.000000	24.109090
1018.000000	24.072296
1017.000000	24.043477
1016.000000	24.013237
1015.000000	23.968310
1014.000000	23.927411
1013.000000	23.905382
1012.000000	23.875063
1011.000000	23.856429
1010.000000	23.838979
1009.000000	23.810002
1008.000000	23.786947
1007.000000	23.771551
1006.000000	23.758207
1005.000000	23.736257
1004.000000	23.708227
1003.000000	23.690936
1002.000000	23.664959
1001.000000	23.638114
1000.000000	23.618059
999.000000	23.591687
998.000000	23.566500
997.000000	23.551262
996.000000	23.531207
995.000000	23.513757
994.000000	23.488886
993.000000	23.462909
992.000000	23.439538
991.000000	23.419957
990.000000	23.389558
989.000000	23.357107
988.000000	23.344553
987.000000	23.315734
986.000000	23.286362
985.000000	23.273018
984.000000	23.254069
983.000000	23.234014
982.000000	23.201010
981.000000	23.165006
980.000000	23.151899
979.000000	23.125369
978.000000	23.104446
977.000000	23.068916
976.000000	23.037807
975.000000	23.011198
974.000000	22.981589
973.000000	22.953876
972.000000	22.935242
971.000000	22.909660
970.000000	22.870182
969.000000	22.845626
968.000000	22.824861
967.000000	22.802437
966.000000	22.777171
965.000000	22.752931
964.000000	22.725691
963.000000	22.717164
962.000000	22.704768
961.000000	22.680291
960.000000	22.652419
959.000000	22.630469
958.000000	22.606940
957.000000	22.601966
956.000000	22.570462
955.000000	22.540459
954.000000	22.526720
953.000000	22.518035
952.000000	22.489769
951.000000	22.469082
950.000000	22.448237
949.000000	22.413970
948.000000	22.416497
947.000000	22.372913
946.000000	22.366754
945.000000	22.369912
944.000000	22.340146
943.000000	22.309037
942.000000	22.297114
941.000000	22.276428
940.000000	22.272243
939.000000	22.262926
938.000000	22.246109
937.000000	22.224159
936.000000	22.221474
935.000000	22.220290
934.000000	22.213736
933.000000	22.206393
932.000000	22.180180
931.000000	22.147886
930.000000	22.133358
929.000000	22.139754
928.000000	22.128226
927.000000	22.140780
926.000000	22.151203
925.000000	22.144175
924.000000	22.117804
923.000000	22.135569
922.000000	22.141412
921.000000	22.117962
920.000000	22.116620
919.000000	22.137780
918.000000	22.150255
917.000000	22.168573
916.000000	22.189497
915.000000	22.201577
914.000000	22.210657
913.000000	22.246661
912.000000	22.262137
911.000000	22.292772
910.000000	22.320407
909.000000	22.322933
908.000000	22.348042
907.000000	22.415944
906.000000	22.456054
905.000000	22.531300
904.000000	22.571015
903.000000	22.629285
902.000000	22.691424
901.000000	22.758379
900.000000	22.821939
899.000000	22.894737
898.000000	22.959166
897.000000	23.044992
896.000000	23.117237
895.000000	23.217433
894.000000	23.306575
893.000000	23.412061
892.000000	23.507835
891.000000	23.656669
890.000000	23.750311
889.000000	23.868509
888.000000	23.968942
887.000000	24.085640
886.000000	24.192468
885.000000	24.332616
884.000000	24.506242
883.000000	24.643074
882.000000	24.783459
881.000000	24.946978
880.000000	25.077967
879.000000	25.222931
878.000000	25.375002
877.000000	25.568998
876.000000	25.702830
875.000000	25.867454
874.000000	26.058687
873.000000	26.230181
872.000000	26.429941
871.000000	26.570800
870.000000	26.750189
869.000000	26.930526
868.000000	27.110547
867.000000	27.326020
866.000000	27.505646
865.000000	27.704301
864.000000	27.881006
863.000000	28.103269
862.000000	28.297502
861.000000	28.478471
860.000000	28.646964
859.000000	28.840487
858.000000	27.978833
857.000000	28.193500
856.000000	27.915500
855.000000	27.827500
854.000000	28.215600
853.000000	28.299800
852.000000	28.445200
851.000000	28.201000
850.000000	28.384500
849.000000	28.396100
848.000000	28.522300
847.000000	28.576000
846.000000	28.553200
845.000000	28.565000
844.000000	28.635000
843.000000	28.808800
842.000000	28.686600
841.000000	28.752500
840.000000	28.769900
839.000000	28.802300
838.000000	28.789100
837.000000	28.744800
836.000000	28.758600
835.000000	28.897500
834.000000	28.840000
833.000000	28.872500
832.000000	28.924600
831.000000	28.908900
830.000000	28.968200
829.000000	29.023400
828.000000	29.069300
827.000000	29.077500
826.000000	29.087600
825.000000	29.057700
824.000000	28.969200
823.000000	29.112200
822.000000	29.165900
821.000000	29.093500
820.000000	29.054600
819.000000	29.118100
818.000000	29.128400
817.000000	29.192800
816.000000	29.244700
815.000000	29.273500
814.000000	29.292800
813.000000	29.326700
812.000000	29.320800
811.000000	29.296500
810.000000	29.382500
809.000000	29.454000
808.000000	29.475600
807.000000	29.397800
806.000000	29.435700
805.000000	29.480900
804.000000	29.465400
803.000000	29.544500
802.000000	29.545000
801.000000	29.604000
800.000000	29.642200
799.000000	29.652700
798.000000	29.683400
797.000000	29.700400
796.000000	29.738400
795.000000	29.804700
794.000000	29.851400
793.000000	29.854400
792.000000	29.853700
791.000000	29.850400
790.000000	29.878600
789.000000	29.963500
788.000000	29.989500
787.000000	29.953800
786.000000	29.948000
785.000000	29.983000
784.000000	29.993200
783.000000	29.974000
782.000000	29.998800
781.000000	29.956800
780.000000	29.949700
779.000000	29.993500
778.000000	30.013200
777.000000	30.031200
776.000000	30.011100
775.000000	29.997400
774.000000	30.048800
773.000000	30.023200
772.000000	29.993200
771.000000	29.990200
770.000000	29.981100
769.000000	29.988000
768.000000	29.965600
767.000000	29.973600
766.000000	29.970600
765.000000	29.924300
764.000000	29.924300
763.000000	29.920500
762.000000	29.858600
761.000000	29.787300
760.000000	29.792200
759.000000	29.758400
758.000000	29.687600
757.000000	29.651100
756.000000	29.625200
755.000000	29.563900
754.000000	29.523200
753.000000	29.472200
752.000000	29.440200
751.000000	29.426800
750.000000	29.374600
749.000000	29.315300
748.000000	29.275700
747.000000	29.200400
746.000000	29.122800
745.000000	29.095100
744.000000	29.034600
743.000000	28.984400
742.000000	28.939600
741.000000	28.859200
740.000000	28.823200
739.000000	28.784700
738.000000	28.720000
737.000000	28.701500
736.000000	28.666300
735.000000	28.615500
734.000000	28.547400
733.000000	28.507600
732.000000	28.459200
731.000000	28.423600
730.000000	28.391900
729.000000	28.318300
728.000000	28.264000
727.000000	28.211100
726.000000	28.131500
725.000000	28.071900
724.000000	28.034800
723.000000	27.962800
722.000000	27.884300
721.000000	27.840100
720.000000	27.794300
719.000000	27.721700
718.000000	27.631500
717.000000	27.521400
716.000000	27.445800
715.000000	27.396800
714.000000	27.291900
713.000000	27.232000
712.000000	27.174000
711.000000	27.076300
710.000000	26.990500
709.000000	26.900300
708.000000	26.793000
707.000000	26.693300
706.000000	26.617600
705.000000	26.511700
704.000000	26.380100
703.000000	26.265600
702.000000	26.154800
701.000000	26.044500
700.000000	25.904500
699.000000	25.759600
698.000000	25.639400
697.000000	25.554400
696.000000	25.417500
695.000000	25.290900
694.000000	25.152900
693.000000	25.022300
692.000000	24.867700
691.000000	24.744500
690.000000	24.615900
689.000000	24.480700
688.000000	24.347100
687.000000	24.287700
686.000000	24.157200
685.000000	24.019000
684.000000	23.889600
683.000000	23.776700
682.000000	23.632000
681.000000	23.530000
680.000000	23.425600
679.000000	23.285600
678.000000	23.149400
677.000000	23.027100
676.000000	22.932400
675.000000	22.848000
674.000000	22.716600
673.000000	22.601000
672.000000	22.485900
671.000000	22.408800
670.000000	22.285800
669.000000	22.204400
668.000000	22.116300
667.000000	22.014300
666.000000	21.924100
665.000000	21.815500
664.000000	21.704700
663.000000	21.617400
662.000000	21.553100
661.000000	21.451600
660.000000	21.354900
659.000000	21.271400
658.000000	21.164800
657.000000	21.081900
656.000000	21.013800
655.000000	20.899100
654.000000	20.835300
653.000000	20.748200
652.000000	20.670400
651.000000	20.593600
650.000000	20.486800
649.000000	20.382600
648.000000	20.321800
647.000000	20.232600
646.000000	20.183500
645.000000	20.083400
644.000000	19.990900
643.000000	19.913400
642.000000	19.842200
641.000000	19.781700
640.000000	19.702800
639.000000	19.622700
638.000000	19.545800
637.000000	19.490000
636.000000	19.416800
635.000000	19.313200
634.000000	19.217500
633.000000	19.147600
632.000000	19.072100
631.000000	18.987500
630.000000	18.910400
629.000000	18.810200
628.000000	18.726300
627.000000	18.652400
626.000000	18.589500
625.000000	18.481900
624.000000	18.432500
623.000000	18.358000
622.000000	18.271200
621.000000	18.221200
620.000000	18.160500
619.000000	18.114500
618.000000	18.039800
617.000000	17.989100
616.000000	17.953500
615.000000	17.919800
614.000000	17.871800
613.000000	17.847800
612.000000	17.800300
611.000000	17.757900
610.000000	17.700300
609.000000	17.673200
608.000000	17.636200
607.000000	17.629100
606.000000	17.631000
605.000000	17.616300
604.000000	17.582800
603.000000	17.556300
602.000000	17.546800
601.000000	17.524000
600.000000	17.529800
599.000000	17.517800
598.000000	17.515100
597.000000	17.498700
596.000000	17.528600
595.000000	17.527500
594.000000	17.521700
593.000000	17.501000
592.000000	17.518200
591.000000	17.538600
590.000000	17.529700
589.000000	17.538700
588.000000	17.559800
587.000000	17.571000
586.000000	17.578700
585.000000	17.607500
584.000000	17.613800
583.000000	17.624200
582.000000	17.632500
581.000000	17.661900
580.000000	17.681200
579.000000	17.690700
578.000000	17.697600
577.000000	17.737000
576.000000	17.758300
575.000000	17.795800
574.000000	17.840800
573.000000	17.842300
572.000000	17.838500
571.000000	17.848100
570.000000	17.862500
569.000000	17.848800
568.000000	17.886400
567.000000	17.851000
566.000000	17.831300
565.000000	17.823000
564.000000	17.785200
563.000000	17.769900
562.000000	17.724200
561.000000	17.667400
560.000000	17.662100
559.000000	17.927700
558.000000	17.874600
557.000000	17.835300
556.000000	17.799900
555.000000	17.769600
554.000000	17.716200
553.000000	17.678300
552.000000	17.612300
551.000000	17.535900
550.000000	17.484300
549.000000	17.409500
548.000000	17.352600
547.000000	17.292600
546.000000	17.236600
545.000000	17.169800
544.000000	17.079200
543.000000	16.995000
542.000000	16.903400
541.000000	16.838000
540.000000	16.767800
539.000000	16.702600
538.000000	16.615200
537.000000	16.516900
536.000000	16.394100
535.000000	16.309200
534.000000	16.202600
533.000000	16.097200
532.000000	15.993000
531.000000	15.890000
530.000000	15.804900
529.000000	15.706500
528.000000	15.594700
527.000000	15.479300
526.000000	15.376800
525.000000	15.272700
524.000000	15.147800
523.000000	15.034500
522.000000	14.920800
521.000000	14.812600
520.000000	14.701000
519.000000	14.580900
518.000000	14.459200
517.000000	14.349900
516.000000	14.219500
515.000000	14.078000
514.000000	13.937600
513.000000	13.787700
512.000000	13.627900
511.000000	13.474000
510.000000	13.330200
509.000000	13.176000
508.000000	13.019200
507.000000	12.862300
506.000000	12.700300
505.000000	12.535900
504.000000	12.382800
503.000000	12.226500
502.000000	12.051000
501.000000	11.890300
500.000000	11.730100
499.000000	11.572200
498.000000	11.403300
497.000000	11.243300
496.000000	11.095600
495.000000	10.940800
494.000000	10.772100
493.000000	10.621200
492.000000	10.466400
491.000000	10.317100
490.000000	10.151200
489.000000	9.997500
488.000000	9.859800
487.000000	9.733100
486.000000	9.621200
485.000000	9.485800
484.000000	9.372400
483.000000	9.270300
482.000000	9.157600
481.000000	9.033100
480.000000	8.930100
479.000000	8.853300
478.000000	8.795600
477.000000	8.738400
476.000000	8.684100
475.000000	8.640000
474.000000	8.603000
473.000000	8.568400
472.000000	8.533000
471.000000	8.500100
470.000000	8.472200
469.000000	8.453100
468.000000	8.438700
467.000000	8.425900
466.000000	8.409400
465.000000	8.385800
464.000000	8.363500
463.000000	8.342400
462.000000	8.320100
461.000000	8.307000
460.000000	8.288100
459.000000	8.261600
458.000000	8.241700
457.000000	8.207300
456.000000	8.176300
455.000000	8.162500
454.000000	8.137400
453.000000	8.101900
452.000000	8.055700
451.000000	8.012700
450.000000	7.976000
449.000000	7.935800
448.000000	7.899700
447.000000	7.859900
446.000000	7.816900
445.000000	7.776800
444.000000	7.731800
443.000000	7.668100
442.000000	7.587400
441.000000	7.522600
440.000000	7.464100
439.000000	7.399000
438.000000	7.342800
437.000000	7.275400
436.000000	7.207300
435.000000	7.148300
434.000000	7.086900
433.000000	7.020000
432.000000	6.957300
431.000000	6.896700
430.000000	6.824100
429.000000	6.749700
428.000000	6.681900
427.000000	6.622300
426.000000	6.562400
425.000000	6.483000
424.000000	6.401400
423.000000	6.336300
422.000000	6.266400
421.000000	6.188100
420.000000	6.116100
419.000000	6.040500
418.000000	5.956300
417.000000	5.878200
416.000000	5.802700
415.000000	5.722600
414.000000	5.649300
413.000000	5.565000
412.000000	5.475600
411.000000	5.395900
410.000000	5.306200
409.000000	5.221200
408.000000	5.139400
407.000000	5.052100
406.000000	4.969800
405.000000	4.883300
404.000000	4.800200
403.000000	4.720300
402.000000	4.622900
401.000000	4.554500
400.000000	4.466300
399.000000	4.375000
398.000000	4.296100
397.000000	4.219800
396.000000	4.153900
395.000000	4.078700
394.000000	3.998800
393.000000	3.936600
392.000000	3.870000
391.000000	3.795300
390.000000	3.737600
389.000000	3.693500
388.000000	3.638100
387.000000	3.582000
386.000000	3.522000
385.000000	3.480500
384.000000	3.428200
383.000000	3.384000
382.000000	3.345900
381.000000	3.303000
380.000000	3.263400
379.000000	3.225600
378.000000	3.196500
377.000000	3.160300
376.000000	3.225400
375.000000	3.027500
374.000000	2.913100
373.000000	2.953200
372.000000	2.898300
371.000000	2.998900
370.000000	3.000300
369.000000	2.957300
368.000000	2.962300
367.000000	3.025800
366.000000	2.962300
365.000000	2.960700
364.000000	2.938500
363.000000	2.890600
362.000000	2.858800
361.000000	2.914900
360.000000	2.893000
359.000000	2.803700
358.000000	2.887900
357.000000	2.819700
356.000000	2.825000
355.000000	2.844100
354.000000	2.720000
353.000000	2.707700
352.000000	2.608100
351.000000	2.617500
350.000000	2.737700
349.000000	2.742600
348.000000	2.778000
347.000000	2.567200
346.000000	2.615600
345.000000	2.650500
344.000000	2.681600
343.000000	2.614100
342.000000	2.609300
341.000000	2.664000
340.000000	2.651900
339.000000	2.725600
338.000000	2.630400
337.000000	2.612700
336.000000	2.680600
335.000000	2.622000
334.000000	2.647500
333.000000	2.412600
332.000000	2.310900
331.000000	2.495600
330.000000	2.448500
329.000000	2.572000
328.000000	2.463500
327.000000	2.772400
326.000000	2.504100
325.000000	2.487600
324.000000	2.650400
323.000000	2.664600
322.000000	2.753300
321.000000	2.676800
320.000000	2.668700
319.000000	2.795500
318.000000	2.892200
317.000000	2.823800
316.000000	2.299700
315.000000	2.232400
314.000000	2.276200
313.000000	2.230800
312.000000	2.239700
311.000000	2.218500
310.000000	2.269900
309.000000	2.247200
308.000000	2.222800
307.000000	2.209200
306.000000	2.201900
305.000000	2.242200
304.000000	2.162300
303.000000	2.211500
302.000000	2.204700
301.000000	2.231600
300.000000	2.177600
299.000000	2.194200
298.000000	2.225000
297.000000	2.220300
296.000000	2.224200
295.000000	2.209800
294.000000	2.234800
293.000000	2.142400
292.000000	2.223500
291.000000	2.151300
290.000000	2.231200
289.000000	2.189800
288.000000	2.187900
287.000000	2.130400
286.000000	2.216200
285.000000	2.143700
284.000000	2.174600
283.000000	2.153200
282.000000	2.156200
281.000000	2.149500
280.000000	2.206300
279.000000	2.184900
278.000000	2.227500
277.000000	2.168400
276.000000	2.170600
275.000000	2.165100
274.000000	2.204200
273.000000	2.220500
272.000000	2.203300
271.000000	2.226800
270.000000	2.240900
269.000000	2.198800
268.000000	2.248500
267.000000	2.250600
266.000000	2.240700
265.000000	2.223800
264.000000	2.248800
263.000000	2.251700
262.000000	2.290100
261.000000	2.309800
260.000000	2.256100
259.000000	2.267000
258.000000	2.291400
257.000000	2.280300
256.000000	2.285300
255.000000	2.259800
254.000000	2.273600
253.000000	2.306400
252.000000	2.292000
251.000000	2.271200
250.000000	2.296000
