PE UV       SUBTECH     SPECTRUM    ASCII       PEDS        4.00        
   -1
INBUCR0111-5.Sample.ASC
24/02/09
16:30:28.00
24/02/09
16:30:28.00
Vinicio Soto Monge
Strigidia belti. Color verde oscuro metálico con ambos élitros (Det: A.Solís) COSTA RICA Prov. Alajuela. San Ramón. Est. Biol. Villa Blanca. 1115m 23 25 MAY 2009 R. Rojas Tp. Luz Mercurio  L_N_242482 483371 #97135 INB0004224190 
250,000000
1
Lambda 1050
1050L1511233
PerkinElmer UV WinLab 6.3.2.0749 / 2.02.05 Lambda 900 UV/VIS/NIR, Aug  7 2015 09:38:08

0
0
3350/servo 860,8/2
0
0
UV/VIS
1
1
1
DoubleDePol,CommonBeamDepol,RBeamAtt,SBeamAtt,60mm sphere, WB InGaAs Detector
0
0
0
0
Program
Program
3350/servo 860,8/2
3350/0,2 860,8/0,2
3350/0,2 860,8/0,2
0
15.00
 
 
 
0
 
860,8
319,2
860,8
Front
100
on
S:100 R:100
0
0
0
0
 
0
 
 
 
0
 
 
0
0
0
0
0
 
 
 
 
0
0


0
0
#HDR
-1
-1
#GR
nm
%R
1.0
0.0
2500,000000
-1,000000
2251
8
19,579500
1,493300
#DATA

250.000000	4.069837
251.000000	4.067516
252.000000	4.080100
253.000000	4.538679
254.000000	4.544570
255.000000	4.537382
256.000000	4.558430
257.000000	4.549062
258.000000	4.552262
259.000000	4.083340
260.000000	4.545591
261.000000	4.551269
262.000000	4.072268
263.000000	4.551156
264.000000	4.064349
265.000000	4.090623
266.000000	4.066356
267.000000	4.088147
268.000000	4.094008
269.000000	4.078675
270.000000	4.061215
271.000000	4.086332
272.000000	4.078887
273.000000	4.074521
274.000000	4.091419
275.000000	4.063438
276.000000	4.075148
277.000000	4.092710
278.000000	4.078519
279.000000	4.091892
280.000000	4.085181
281.000000	4.082952
282.000000	4.090336
283.000000	4.098075
284.000000	4.090129
285.000000	4.090442
286.000000	4.083173
287.000000	4.084816
288.000000	4.079950
289.000000	4.078290
290.000000	4.588813
291.000000	4.571650
292.000000	4.078476
293.000000	4.084938
294.000000	4.090319
295.000000	4.090240
296.000000	4.095162
297.000000	4.088470
298.000000	4.080895
299.000000	4.096884
300.000000	4.578573
301.000000	4.068233
302.000000	4.095602
303.000000	4.575859
304.000000	4.570851
305.000000	4.589028
306.000000	4.581305
307.000000	4.568854
308.000000	4.571547
309.000000	4.573429
310.000000	4.584376
311.000000	4.574532
312.000000	4.608140
313.000000	4.587247
314.000000	4.585717
315.000000	4.592494
316.000000	4.597909
317.000000	4.490299
318.000000	4.507427
319.000000	4.476463
320.000000	4.410444
321.000000	4.495548
322.000000	4.493039
323.000000	4.486169
324.000000	4.478986
325.000000	4.528649
326.000000	4.499111
327.000000	4.592123
328.000000	4.518819
329.000000	4.490784
330.000000	4.553506
331.000000	4.546687
332.000000	4.499663
333.000000	4.538501
334.000000	4.574948
335.000000	4.599284
336.000000	4.593582
337.000000	4.547169
338.000000	4.559068
339.000000	4.547641
340.000000	4.591023
341.000000	4.576523
342.000000	4.589719
343.000000	4.565447
344.000000	4.551699
345.000000	4.557619
346.000000	4.584220
347.000000	4.600000
348.000000	4.622541
349.000000	4.599744
350.000000	4.575574
351.000000	4.602345
352.000000	4.607451
353.000000	4.629545
354.000000	4.603223
355.000000	4.593922
356.000000	4.582524
357.000000	4.576079
358.000000	4.588462
359.000000	4.611006
360.000000	4.605769
361.000000	4.621627
362.000000	4.619470
363.000000	4.625304
364.000000	4.631397
365.000000	4.614122
366.000000	4.597571
367.000000	4.632203
368.000000	4.632957
369.000000	4.656267
370.000000	4.624898
371.000000	4.647012
372.000000	4.657213
373.000000	4.654870
374.000000	4.684949
375.000000	4.704136
376.000000	4.698664
377.000000	4.684352
378.000000	4.688656
379.000000	4.685288
380.000000	4.689787
381.000000	4.690832
382.000000	4.685854
383.000000	4.686647
384.000000	4.684672
385.000000	4.684030
386.000000	4.689762
387.000000	4.688827
388.000000	4.689599
389.000000	4.692174
390.000000	4.687371
391.000000	4.688805
392.000000	4.689756
393.000000	4.690861
394.000000	4.689590
395.000000	4.690071
396.000000	4.691645
397.000000	4.691185
398.000000	4.693219
399.000000	4.694006
400.000000	4.692839
401.000000	4.694634
402.000000	4.693329
403.000000	4.692717
404.000000	4.693489
405.000000	4.696681
406.000000	4.698023
407.000000	4.695364
408.000000	4.696422
409.000000	4.699464
410.000000	4.697938
411.000000	4.697792
412.000000	4.700846
413.000000	4.701076
414.000000	4.700050
415.000000	4.699723
416.000000	4.701346
417.000000	4.701775
418.000000	4.699972
419.000000	4.700143
420.000000	4.703129
421.000000	4.704050
422.000000	4.704699
423.000000	4.705774
424.000000	4.703892
425.000000	4.702677
426.000000	4.705844
427.000000	4.708842
428.000000	4.707468
429.000000	4.707001
430.000000	4.706958
431.000000	4.709642
432.000000	4.708128
433.000000	4.706943
434.000000	4.709036
435.000000	4.710468
436.000000	4.710697
437.000000	4.710820
438.000000	4.709674
439.000000	4.712247
440.000000	4.715350
441.000000	4.714800
442.000000	4.714068
443.000000	4.715643
444.000000	4.717473
445.000000	4.716040
446.000000	4.714455
447.000000	4.715229
448.000000	4.715138
449.000000	4.714012
450.000000	4.716025
451.000000	4.718749
452.000000	4.719899
453.000000	4.719370
454.000000	4.720794
455.000000	4.720711
456.000000	4.722203
457.000000	4.723497
458.000000	4.720691
459.000000	4.720442
460.000000	4.720202
461.000000	4.720464
462.000000	4.720614
463.000000	4.721902
464.000000	4.723238
465.000000	4.724250
466.000000	4.724203
467.000000	4.723762
468.000000	4.724728
469.000000	4.725552
470.000000	4.725028
471.000000	4.725441
472.000000	4.728382
473.000000	4.729121
474.000000	4.731011
475.000000	4.732759
476.000000	4.733364
477.000000	4.734500
478.000000	4.736653
479.000000	4.738131
480.000000	4.739387
481.000000	4.744631
482.000000	4.750468
483.000000	4.751884
484.000000	4.752476
485.000000	4.753171
486.000000	4.754279
487.000000	4.752825
488.000000	4.753452
489.000000	4.753126
490.000000	4.752462
491.000000	4.754289
492.000000	4.756269
493.000000	4.756291
494.000000	4.756787
495.000000	5.235486
496.000000	5.234000
497.000000	5.233465
498.000000	5.234338
499.000000	5.237257
500.000000	5.235924
501.000000	5.234668
502.000000	5.236577
503.000000	5.240102
504.000000	5.240256
505.000000	5.240484
506.000000	5.244578
507.000000	5.249021
508.000000	5.251589
509.000000	5.256249
510.000000	5.259949
511.000000	5.266848
512.000000	5.276629
513.000000	5.285020
514.000000	5.294831
515.000000	5.308455
516.000000	5.322499
517.000000	5.340455
518.000000	5.358607
519.000000	5.381779
520.000000	5.408409
521.000000	5.437328
522.000000	5.467026
523.000000	5.503762
524.000000	5.544269
525.000000	5.587509
526.000000	5.634114
527.000000	5.682834
528.000000	5.738990
529.000000	5.800613
530.000000	5.864669
531.000000	5.930329
532.000000	6.000971
533.000000	6.067914
534.000000	6.490404
535.000000	6.554826
536.000000	6.614693
537.000000	6.675964
538.000000	6.741480
539.000000	6.801719
540.000000	6.846112
541.000000	7.221499
542.000000	7.259583
543.000000	7.286076
544.000000	7.297037
545.000000	7.318618
546.000000	7.320441
547.000000	7.633551
548.000000	7.609650
549.000000	7.582639
550.000000	7.540746
551.000000	7.503046
552.000000	7.770063
553.000000	7.706375
554.000000	7.641790
555.000000	7.573275
556.000000	7.493439
557.000000	7.411244
558.000000	7.328976
559.000000	7.248106
560.000000	7.174940
561.000000	7.484985
562.000000	7.423111
563.000000	7.362309
564.000000	7.307432
565.000000	7.259232
566.000000	6.815550
567.000000	6.779082
568.000000	6.751243
569.000000	6.738414
570.000000	6.727085
571.000000	6.738506
572.000000	6.751995
573.000000	6.775934
574.000000	6.380540
575.000000	6.422639
576.000000	6.472203
577.000000	6.522941
578.000000	6.578916
579.000000	6.645822
580.000000	6.305993
581.000000	6.374223
582.000000	6.442546
583.000000	6.507483
584.000000	6.572218
585.000000	6.623865
586.000000	6.668993
587.000000	6.713273
588.000000	6.740006
589.000000	6.750169
590.000000	6.755819
591.000000	6.740770
592.000000	6.712127
593.000000	6.676082
594.000000	6.638468
595.000000	6.584556
596.000000	6.529674
597.000000	6.473929
598.000000	6.405210
599.000000	6.736033
600.000000	6.682156
601.000000	6.629043
602.000000	6.592535
603.000000	6.556289
604.000000	6.530538
605.000000	6.515618
606.000000	6.513416
607.000000	6.516793
608.000000	6.532425
609.000000	6.555852
610.000000	6.589825
611.000000	6.627707
612.000000	6.668978
613.000000	6.713668
614.000000	6.768668
615.000000	6.817395
616.000000	6.462913
617.000000	6.507104
618.000000	6.555222
619.000000	6.583524
620.000000	6.608268
621.000000	6.631053
622.000000	6.639219
623.000000	6.637620
624.000000	6.620571
625.000000	6.595032
626.000000	6.566389
627.000000	6.535520
628.000000	6.502992
629.000000	6.858374
630.000000	6.824944
631.000000	6.792098
632.000000	6.766274
633.000000	6.757068
634.000000	6.741871
635.000000	6.740696
636.000000	6.751769
637.000000	6.770933
638.000000	6.792818
639.000000	6.825868
640.000000	6.859001
641.000000	6.901027
642.000000	6.944049
643.000000	6.987668
644.000000	7.032849
645.000000	7.077199
646.000000	7.104020
647.000000	7.142323
648.000000	7.168712
649.000000	7.190778
650.000000	7.202963
651.000000	7.205493
652.000000	7.203276
653.000000	7.200062
654.000000	7.191610
655.000000	7.180932
656.000000	7.168570
657.000000	7.160091
658.000000	7.518270
659.000000	7.515572
660.000000	7.523204
661.000000	7.529316
662.000000	7.544988
663.000000	7.575800
664.000000	7.598183
665.000000	7.635207
666.000000	7.681578
667.000000	7.717840
668.000000	7.761603
669.000000	7.812829
670.000000	7.868133
671.000000	7.912502
672.000000	7.946093
673.000000	7.975919
674.000000	8.005454
675.000000	8.033582
676.000000	8.049672
677.000000	8.058832
678.000000	8.071908
679.000000	8.409654
680.000000	8.415537
681.000000	8.418499
682.000000	8.426732
683.000000	8.445106
684.000000	8.452695
685.000000	8.461610
686.000000	8.481961
687.000000	8.506961
688.000000	8.531177
689.000000	8.570829
690.000000	8.610978
691.000000	8.974313
692.000000	9.018524
693.000000	9.070561
694.000000	9.114658
695.000000	9.151360
696.000000	9.191126
697.000000	9.236412
698.000000	9.265189
699.000000	9.290068
700.000000	9.324890
701.000000	9.338691
702.000000	9.347670
703.000000	9.358802
704.000000	9.377260
705.000000	9.400986
706.000000	9.715814
707.000000	9.729120
708.000000	9.757182
709.000000	9.778411
710.000000	9.792132
711.000000	9.818673
712.000000	9.861569
713.000000	9.909878
714.000000	9.954676
715.000000	10.001875
716.000000	10.033922
717.000000	10.348532
718.000000	10.390223
719.000000	10.431099
720.000000	10.469554
721.000000	10.505074
722.000000	10.553645
723.000000	10.577071
724.000000	10.579470
725.000000	10.611785
726.000000	10.634001
727.000000	10.647327
728.000000	10.674629
729.000000	10.981383
730.000000	11.005169
731.000000	11.039552
732.000000	11.078109
733.000000	11.100309
734.000000	11.150773
735.000000	11.187807
736.000000	11.213493
737.000000	11.258930
738.000000	11.317081
739.000000	11.622253
740.000000	11.654693
741.000000	11.701698
742.000000	11.748934
743.000000	11.785798
744.000000	11.837969
745.000000	11.886015
746.000000	11.905773
747.000000	11.932858
748.000000	11.983449
749.000000	12.028146
750.000000	12.322132
751.000000	12.340360
752.000000	12.391964
753.000000	12.449349
754.000000	12.472456
755.000000	12.505719
756.000000	12.550156
757.000000	12.639299
758.000000	12.660758
759.000000	12.674616
760.000000	12.727914
761.000000	13.036808
762.000000	13.100282
763.000000	13.152451
764.000000	13.172236
765.000000	13.222256
766.000000	13.268148
767.000000	13.339060
768.000000	13.388227
769.000000	13.437551
770.000000	13.456021
771.000000	13.524522
772.000000	13.837554
773.000000	13.874019
774.000000	13.900863
775.000000	13.949616
776.000000	14.041958
777.000000	14.084762
778.000000	14.117807
779.000000	14.162874
780.000000	14.180133
781.000000	14.250778
782.000000	14.546883
783.000000	14.608396
784.000000	14.667278
785.000000	14.699798
786.000000	14.722459
787.000000	14.783471
788.000000	14.839003
789.000000	14.885442
790.000000	15.030692
791.000000	15.040108
792.000000	15.070120
793.000000	15.340153
794.000000	15.394962
795.000000	15.526186
796.000000	15.569263
797.000000	15.612737
798.000000	15.668561
799.000000	15.725323
800.000000	15.738464
801.000000	15.776495
802.000000	15.855640
803.000000	16.131435
804.000000	16.116715
805.000000	16.266113
806.000000	16.301092
807.000000	16.354637
808.000000	16.432965
809.000000	16.433036
810.000000	16.468711
811.000000	16.600581
812.000000	16.646594
813.000000	16.763764
814.000000	16.744944
815.000000	17.019729
816.000000	17.050009
817.000000	17.135759
818.000000	17.227682
819.000000	17.222721
820.000000	17.319470
821.000000	17.348823
822.000000	17.390458
823.000000	17.510403
824.000000	17.533212
825.000000	17.614511
826.000000	17.972333
827.000000	17.879711
828.000000	17.866857
829.000000	17.947857
830.000000	18.056687
831.000000	18.132058
832.000000	18.122683
833.000000	18.109647
834.000000	18.289186
835.000000	18.453166
836.000000	18.286317
837.000000	18.450990
838.000000	18.801675
839.000000	18.741965
840.000000	18.714085
841.000000	18.879976
842.000000	18.833800
843.000000	18.997880
844.000000	19.123249
845.000000	18.899831
846.000000	19.210309
847.000000	19.163437
848.000000	18.965217
849.000000	19.396394
850.000000	19.132531
851.000000	19.459442
852.000000	19.321887
853.000000	19.456116
854.000000	19.595037
855.000000	19.997523
856.000000	19.791974
857.000000	19.775154
858.000000	25.889067
859.000000	20.108529
860.000000	20.167322
861.000000	20.053423
862.000000	20.006899
863.000000	20.148496
864.000000	20.111814
865.000000	19.650768
866.000000	19.537781
867.000000	19.954241
868.000000	19.398687
869.000000	19.463301
870.000000	19.244621
871.000000	18.869201
872.000000	19.273007
873.000000	19.078904
874.000000	19.263484
875.000000	18.970393
876.000000	18.668581
877.000000	19.059791
878.000000	18.999293
879.000000	18.623147
880.000000	18.710069
881.000000	18.666876
882.000000	18.837801
883.000000	18.724457
884.000000	18.894760
885.000000	18.522174
886.000000	18.373366
887.000000	18.490460
888.000000	18.509376
889.000000	18.680994
890.000000	18.327238
891.000000	18.064046
892.000000	18.437094
893.000000	18.332254
894.000000	18.095234
895.000000	18.036981
896.000000	17.969860
897.000000	18.163495
898.000000	17.910939
899.000000	18.158892
900.000000	18.138884
901.000000	18.153384
902.000000	17.941504
903.000000	17.911820
904.000000	17.724577
905.000000	17.941017
906.000000	17.932893
907.000000	17.778800
908.000000	17.741065
909.000000	17.883122
910.000000	17.784980
911.000000	17.857899
912.000000	17.721352
913.000000	17.626821
914.000000	17.681106
915.000000	17.623601
916.000000	17.770279
917.000000	17.778805
918.000000	17.733546
919.000000	17.670915
920.000000	17.669171
921.000000	17.706591
922.000000	17.679747
923.000000	17.621098
924.000000	17.643359
925.000000	17.599158
926.000000	17.707216
927.000000	17.724525
928.000000	17.666148
929.000000	17.675705
930.000000	17.632021
931.000000	17.502721
932.000000	17.508699
933.000000	17.621049
934.000000	17.646341
935.000000	17.552358
936.000000	17.545407
937.000000	17.547769
938.000000	17.586860
939.000000	17.573979
940.000000	17.564504
941.000000	17.512100
942.000000	17.585459
943.000000	17.628966
944.000000	17.647259
945.000000	17.649899
946.000000	17.578692
947.000000	17.647297
948.000000	17.627195
949.000000	17.600364
950.000000	17.600549
951.000000	17.640221
952.000000	17.805443
953.000000	17.642710
954.000000	17.701802
955.000000	17.671119
956.000000	17.834318
957.000000	17.777350
958.000000	17.732926
959.000000	17.788836
960.000000	17.791705
961.000000	17.789536
962.000000	17.765576
963.000000	17.822552
964.000000	17.841591
965.000000	17.799123
966.000000	17.754358
967.000000	17.784529
968.000000	17.834869
969.000000	17.826099
970.000000	17.813969
971.000000	17.799732
972.000000	17.838959
973.000000	17.855840
974.000000	17.846968
975.000000	17.830427
976.000000	17.843172
977.000000	17.864316
978.000000	17.873535
979.000000	17.853391
980.000000	17.852354
981.000000	17.848680
982.000000	17.841901
983.000000	17.846669
984.000000	17.865579
985.000000	17.895315
986.000000	17.898272
987.000000	17.923886
988.000000	17.944627
989.000000	17.916426
990.000000	17.879153
991.000000	17.910213
992.000000	17.929409
993.000000	17.936743
994.000000	17.954051
995.000000	17.935926
996.000000	17.937451
997.000000	17.963234
998.000000	17.937868
999.000000	17.920864
1000.000000	17.962499
1001.000000	17.968521
1002.000000	17.945313
1003.000000	17.961432
1004.000000	17.992539
1005.000000	18.006021
1006.000000	18.003477
1007.000000	18.009127
1008.000000	18.035219
1009.000000	18.035473
1010.000000	18.026683
1011.000000	18.038437
1012.000000	18.050446
1013.000000	18.077256
1014.000000	18.076356
1015.000000	18.204461
1016.000000	18.228469
1017.000000	18.099185
1018.000000	18.211944
1019.000000	18.227843
1020.000000	18.235322
1021.000000	18.243051
1022.000000	18.260444
1023.000000	18.271257
1024.000000	18.273220
1025.000000	18.246819
1026.000000	18.262221
1027.000000	18.293802
1028.000000	18.303082
1029.000000	18.311816
1030.000000	18.326452
1031.000000	18.340071
1032.000000	18.353670
1033.000000	18.343045
1034.000000	18.353698
1035.000000	18.358273
1036.000000	18.371249
1037.000000	18.370872
1038.000000	18.381546
1039.000000	18.407357
1040.000000	18.394359
1041.000000	18.420731
1042.000000	18.427062
1043.000000	18.429494
1044.000000	18.434046
1045.000000	18.424732
1046.000000	18.440437
1047.000000	18.465734
1048.000000	18.449168
1049.000000	18.438481
1050.000000	18.433172
1051.000000	18.446988
1052.000000	18.480770
1053.000000	18.486566
1054.000000	18.516322
1055.000000	18.536127
1056.000000	18.520058
1057.000000	18.524171
1058.000000	18.554472
1059.000000	18.566079
1060.000000	18.558549
1061.000000	18.570121
1062.000000	18.592535
1063.000000	18.595636
1064.000000	18.598804
1065.000000	18.597970
1066.000000	18.615989
1067.000000	18.780879
1068.000000	18.665017
1069.000000	18.786461
1070.000000	18.802152
1071.000000	18.809973
1072.000000	18.800740
1073.000000	18.786578
1074.000000	18.806723
1075.000000	18.831137
1076.000000	18.841240
1077.000000	18.814249
1078.000000	18.831853
1079.000000	18.830371
1080.000000	18.842137
1081.000000	18.850831
1082.000000	18.882887
1083.000000	18.894826
1084.000000	18.874845
1085.000000	18.869622
1086.000000	18.885222
1087.000000	18.925499
1088.000000	18.924860
1089.000000	18.941891
1090.000000	18.935471
1091.000000	18.945553
1092.000000	18.947323
1093.000000	18.934352
1094.000000	18.958318
1095.000000	18.971204
1096.000000	18.969660
1097.000000	18.997243
1098.000000	18.950941
1099.000000	19.001540
1100.000000	19.007802
1101.000000	19.008297
1102.000000	19.009394
1103.000000	19.023021
1104.000000	19.039238
1105.000000	19.040217
1106.000000	19.031560
1107.000000	19.053520
1108.000000	19.077506
1109.000000	19.049746
1110.000000	19.081580
1111.000000	19.093172
1112.000000	19.101126
1113.000000	19.113618
1114.000000	19.125391
1115.000000	19.134985
1116.000000	19.106235
1117.000000	19.111179
1118.000000	19.125332
1119.000000	19.114506
1120.000000	19.109830
1121.000000	19.109742
1122.000000	19.101267
1123.000000	19.135616
1124.000000	19.125801
1125.000000	19.120929
1126.000000	19.131103
1127.000000	19.129262
1128.000000	19.100289
1129.000000	19.109240
1130.000000	19.086295
1131.000000	19.092873
1132.000000	19.130574
1133.000000	19.084947
1134.000000	19.061166
1135.000000	19.030192
1136.000000	19.054719
1137.000000	19.055230
1138.000000	19.034331
1139.000000	19.011233
1140.000000	19.036616
1141.000000	19.034682
1142.000000	19.042515
1143.000000	19.012624
1144.000000	18.998749
1145.000000	18.994687
1146.000000	18.974272
1147.000000	18.962602
1148.000000	18.953784
1149.000000	18.980849
1150.000000	18.949028
1151.000000	18.945374
1152.000000	18.917113
1153.000000	18.901339
1154.000000	18.902664
1155.000000	18.881612
1156.000000	18.875185
1157.000000	18.854560
1158.000000	18.850037
1159.000000	18.836301
1160.000000	18.811112
1161.000000	18.821821
1162.000000	18.658377
1163.000000	18.639962
1164.000000	18.645352
1165.000000	18.609828
1166.000000	18.625582
1167.000000	18.588664
1168.000000	18.578790
1169.000000	18.569251
1170.000000	18.560280
1171.000000	18.545201
1172.000000	18.522565
1173.000000	18.522373
1174.000000	18.522532
1175.000000	18.525429
1176.000000	18.494332
1177.000000	18.482707
1178.000000	18.488236
1179.000000	18.485184
1180.000000	18.473074
1181.000000	18.472797
1182.000000	18.472655
1183.000000	18.477939
1184.000000	18.471500
1185.000000	18.482428
1186.000000	18.501324
1187.000000	18.489866
1188.000000	18.515856
1189.000000	18.525455
1190.000000	18.528544
1191.000000	18.533491
1192.000000	18.543993
1193.000000	18.565957
1194.000000	18.591629
1195.000000	18.598189
1196.000000	18.620386
1197.000000	18.617198
1198.000000	18.601899
1199.000000	18.613474
1200.000000	18.642502
1201.000000	18.656176
1202.000000	18.673372
1203.000000	18.677649
1204.000000	18.814342
1205.000000	18.817311
1206.000000	18.822478
1207.000000	18.849959
1208.000000	18.848398
1209.000000	18.868794
1210.000000	18.896019
1211.000000	18.916750
1212.000000	18.915144
1213.000000	18.916350
1214.000000	18.927428
1215.000000	18.943365
1216.000000	18.944010
1217.000000	18.965476
1218.000000	18.989149
1219.000000	19.010049
1220.000000	19.033457
1221.000000	19.046032
1222.000000	19.060185
1223.000000	19.078419
1224.000000	19.095559
1225.000000	19.097462
1226.000000	19.114633
1227.000000	19.136288
1228.000000	19.148303
1229.000000	19.168788
1230.000000	19.178943
1231.000000	19.179079
1232.000000	19.198970
1233.000000	19.219997
1234.000000	19.227529
1235.000000	19.241683
1236.000000	19.242775
1237.000000	19.251236
1238.000000	19.265871
1239.000000	19.274361
1240.000000	19.293304
1241.000000	19.290977
1242.000000	19.295103
1243.000000	19.292007
1244.000000	19.302077
1245.000000	19.323734
1246.000000	19.325651
1247.000000	19.327262
1248.000000	19.329793
1249.000000	19.464687
1250.000000	19.467009
1251.000000	19.470688
1252.000000	19.477071
1253.000000	19.482786
1254.000000	19.487903
1255.000000	19.482838
1256.000000	19.490920
1257.000000	19.510099
1258.000000	19.517587
1259.000000	19.519730
1260.000000	19.521562
1261.000000	19.532665
1262.000000	19.540154
1263.000000	19.542179
1264.000000	19.554952
1265.000000	19.558736
1266.000000	19.562306
1267.000000	19.569110
1268.000000	19.571789
1269.000000	19.579756
1270.000000	19.589656
1271.000000	19.596230
1272.000000	19.598403
1273.000000	19.601015
1274.000000	19.599607
1275.000000	19.596364
1276.000000	19.603848
1277.000000	19.614587
1278.000000	19.633130
1279.000000	19.639431
1280.000000	19.622752
1281.000000	19.635534
1282.000000	19.643713
1283.000000	19.644080
1284.000000	19.654546
1285.000000	19.658986
1286.000000	19.667385
1287.000000	19.666918
1288.000000	19.659625
1289.000000	19.665269
1290.000000	19.674215
1291.000000	19.674112
1292.000000	19.680698
1293.000000	19.686346
1294.000000	19.690073
1295.000000	19.690375
1296.000000	19.687800
1297.000000	19.698830
1298.000000	19.702753
1299.000000	19.717188
1300.000000	19.720539
1301.000000	19.716212
1302.000000	19.724974
1303.000000	19.729518
1304.000000	19.739749
1305.000000	19.747890
1306.000000	19.740438
1307.000000	19.734241
1308.000000	19.744683
1309.000000	19.749108
1310.000000	19.751126
1311.000000	19.750600
1312.000000	19.753267
1313.000000	19.756534
1314.000000	19.750967
1315.000000	19.748952
1316.000000	19.758305
1317.000000	19.761245
1318.000000	19.752436
1319.000000	19.741942
1320.000000	19.749332
1321.000000	19.731469
1322.000000	19.721616
1323.000000	19.721553
1324.000000	19.723756
1325.000000	19.719172
1326.000000	19.701458
1327.000000	19.683582
1328.000000	19.683283
1329.000000	19.663261
1330.000000	19.645167
1331.000000	19.645427
1332.000000	19.626412
1333.000000	19.611261
1334.000000	19.592314
1335.000000	19.582148
1336.000000	19.547709
1337.000000	19.542259
1338.000000	19.520350
1339.000000	19.516596
1340.000000	19.496957
1341.000000	19.488074
1342.000000	19.474369
1343.000000	19.319070
1344.000000	19.313630
1345.000000	19.304632
1346.000000	19.288741
1347.000000	19.279695
1348.000000	19.250347
1349.000000	19.235346
1350.000000	19.244044
1351.000000	19.229020
1352.000000	19.221436
1353.000000	19.208685
1354.000000	19.162879
1355.000000	19.103268
1356.000000	19.101743
1357.000000	19.086678
1358.000000	19.069697
1359.000000	18.948205
1360.000000	18.881022
1361.000000	18.796242
1362.000000	18.750922
1363.000000	18.736008
1364.000000	18.707554
1365.000000	18.683254
1366.000000	18.693720
1367.000000	18.505250
1368.000000	18.517861
1369.000000	18.546948
1370.000000	18.560352
1371.000000	18.556822
1372.000000	18.593175
1373.000000	18.536295
1374.000000	18.595525
1375.000000	18.643130
1376.000000	18.688523
1377.000000	18.728719
1378.000000	18.657212
1379.000000	18.649297
1380.000000	18.640433
1381.000000	18.521992
1382.000000	18.476852
1383.000000	18.388165
1384.000000	18.238740
1385.000000	18.206806
1386.000000	18.124240
1387.000000	18.036015
1388.000000	17.938226
1389.000000	17.919085
1390.000000	17.874108
1391.000000	17.781443
1392.000000	17.704493
1393.000000	17.659912
1394.000000	17.556143
1395.000000	17.441634
1396.000000	17.344975
1397.000000	17.320620
1398.000000	17.276865
1399.000000	17.149786
1400.000000	17.001292
1401.000000	16.905523
1402.000000	16.754659
1403.000000	16.684448
1404.000000	16.586541
1405.000000	16.520017
1406.000000	16.428027
1407.000000	16.361503
1408.000000	16.245416
1409.000000	16.158593
1410.000000	16.084686
1411.000000	16.062453
1412.000000	16.001879
1413.000000	15.888877
1414.000000	15.663372
1415.000000	15.633219
1416.000000	15.587307
1417.000000	15.525587
1418.000000	15.429990
1419.000000	15.387442
1420.000000	15.334056
1421.000000	15.292646
1422.000000	15.231794
1423.000000	15.199092
1424.000000	15.149414
1425.000000	14.947391
1426.000000	14.919808
1427.000000	14.850387
1428.000000	14.800337
1429.000000	14.765227
1430.000000	14.753591
1431.000000	14.705113
1432.000000	14.643531
1433.000000	14.629152
1434.000000	14.610636
1435.000000	14.570897
1436.000000	14.552491
1437.000000	14.504022
1438.000000	14.474144
1439.000000	14.452741
1440.000000	14.425605
1441.000000	14.248757
1442.000000	14.229592
1443.000000	14.184004
1444.000000	14.159976
1445.000000	14.108142
1446.000000	14.089957
1447.000000	14.083451
1448.000000	14.066599
1449.000000	14.045525
1450.000000	13.996886
1451.000000	13.979932
1452.000000	13.965002
1453.000000	13.937097
1454.000000	13.914293
1455.000000	13.883009
1456.000000	13.876114
1457.000000	13.848288
1458.000000	13.840980
1459.000000	13.818648
1460.000000	13.787667
1461.000000	13.782525
1462.000000	13.761209
1463.000000	13.742818
1464.000000	13.547278
1465.000000	13.523121
1466.000000	13.513533
1467.000000	13.495960
1468.000000	13.482604
1469.000000	13.459369
1470.000000	13.432195
1471.000000	13.419869
1472.000000	13.391451
1473.000000	13.373615
1474.000000	13.382706
1475.000000	13.368574
1476.000000	13.337611
1477.000000	13.323216
1478.000000	13.318487
1479.000000	13.307278
1480.000000	13.283031
1481.000000	13.269631
1482.000000	13.253477
1483.000000	13.243641
1484.000000	13.252341
1485.000000	13.246597
1486.000000	13.222269
1487.000000	13.205828
1488.000000	13.216665
1489.000000	13.212406
1490.000000	13.202894
1491.000000	13.191931
1492.000000	13.195343
1493.000000	13.186583
1494.000000	13.172480
1495.000000	13.184901
1496.000000	13.190493
1497.000000	13.185402
1498.000000	13.196710
1499.000000	13.200114
1500.000000	13.198725
1501.000000	13.218783
1502.000000	13.206278
1503.000000	13.218562
1504.000000	13.228658
1505.000000	13.248547
1506.000000	13.262468
1507.000000	13.259544
1508.000000	13.265787
1509.000000	13.274760
1510.000000	13.288308
1511.000000	13.309537
1512.000000	13.338044
1513.000000	13.344550
1514.000000	13.339199
1515.000000	13.338239
1516.000000	13.359815
1517.000000	13.390450
1518.000000	13.395745
1519.000000	13.416550
1520.000000	13.428001
1521.000000	13.433288
1522.000000	13.454925
1523.000000	13.639111
1524.000000	13.652455
1525.000000	13.665257
1526.000000	13.666483
1527.000000	13.676258
1528.000000	13.694671
1529.000000	13.710635
1530.000000	13.715062
1531.000000	13.723954
1532.000000	13.732446
1533.000000	13.729641
1534.000000	13.754624
1535.000000	13.768761
1536.000000	13.774971
1537.000000	13.795237
1538.000000	13.804057
1539.000000	13.802850
1540.000000	13.814358
1541.000000	13.814979
1542.000000	13.827661
1543.000000	13.846113
1544.000000	13.852019
1545.000000	13.858265
1546.000000	13.864265
1547.000000	13.886269
1548.000000	13.909754
1549.000000	13.924563
1550.000000	13.924517
1551.000000	13.936079
1552.000000	13.946991
1553.000000	13.940022
1554.000000	13.955639
1555.000000	13.964590
1556.000000	13.958261
1557.000000	13.978386
1558.000000	14.004679
1559.000000	14.015559
1560.000000	14.012019
1561.000000	13.999996
1562.000000	14.003693
1563.000000	14.013262
1564.000000	14.004961
1565.000000	14.000086
1566.000000	13.999008
1567.000000	14.156577
1568.000000	13.990283
1569.000000	13.974103
1570.000000	13.969018
1571.000000	13.992023
1572.000000	13.990958
1573.000000	13.994361
1574.000000	14.002656
1575.000000	13.993402
1576.000000	13.987329
1577.000000	13.973718
1578.000000	14.153402
1579.000000	14.162955
1580.000000	14.162782
1581.000000	14.172158
1582.000000	14.184145
1583.000000	14.167640
1584.000000	14.169046
1585.000000	14.179678
1586.000000	14.191417
1587.000000	14.214696
1588.000000	14.223207
1589.000000	14.218615
1590.000000	14.236936
1591.000000	14.242914
1592.000000	14.251939
1593.000000	14.276982
1594.000000	14.286667
1595.000000	14.305211
1596.000000	14.298698
1597.000000	14.321252
1598.000000	14.352954
1599.000000	14.354901
1600.000000	14.366868
1601.000000	14.368803
1602.000000	14.379406
1603.000000	14.408630
1604.000000	14.418020
1605.000000	14.421176
1606.000000	14.456889
1607.000000	14.460670
1608.000000	14.474309
1609.000000	14.479335
1610.000000	14.511341
1611.000000	14.523850
1612.000000	14.541976
1613.000000	14.709154
1614.000000	14.730324
1615.000000	14.721634
1616.000000	14.749669
1617.000000	14.745528
1618.000000	14.733519
1619.000000	14.753072
1620.000000	14.765824
1621.000000	14.761254
1622.000000	14.797901
1623.000000	14.802526
1624.000000	14.827893
1625.000000	14.815962
1626.000000	14.812186
1627.000000	14.799716
1628.000000	14.829823
1629.000000	14.812939
1630.000000	14.839122
1631.000000	14.841903
1632.000000	14.864806
1633.000000	14.894225
1634.000000	14.869698
1635.000000	14.871794
1636.000000	14.871932
1637.000000	14.890498
1638.000000	14.871754
1639.000000	14.894498
1640.000000	14.906673
1641.000000	14.920945
1642.000000	14.907727
1643.000000	14.914357
1644.000000	14.900285
1645.000000	14.871708
1646.000000	14.878481
1647.000000	14.866186
1648.000000	14.857756
1649.000000	14.874526
1650.000000	14.844859
1651.000000	14.850399
1652.000000	14.866301
1653.000000	14.831770
1654.000000	14.836243
1655.000000	14.829169
1656.000000	14.813256
1657.000000	14.773497
1658.000000	14.765863
1659.000000	14.749500
1660.000000	14.705855
1661.000000	14.697222
1662.000000	14.519721
1663.000000	14.489601
1664.000000	14.439252
1665.000000	14.425633
1666.000000	14.391641
1667.000000	14.357541
1668.000000	14.341289
1669.000000	14.313748
1670.000000	14.234734
1671.000000	14.203319
1672.000000	14.166416
1673.000000	14.166025
1674.000000	13.936210
1675.000000	13.898456
1676.000000	13.821501
1677.000000	13.788808
1678.000000	13.748319
1679.000000	13.709748
1680.000000	13.687608
1681.000000	13.641110
1682.000000	13.644553
1683.000000	13.620777
1684.000000	13.596084
1685.000000	13.580894
1686.000000	13.569807
1687.000000	13.362577
1688.000000	13.326662
1689.000000	13.325812
1690.000000	13.302692
1691.000000	13.278146
1692.000000	13.248808
1693.000000	13.257420
1694.000000	13.243323
1695.000000	13.259219
1696.000000	13.257478
1697.000000	13.262066
1698.000000	13.269409
1699.000000	13.258902
1700.000000	13.258359
1701.000000	13.248615
1702.000000	13.241726
1703.000000	13.234209
1704.000000	13.245869
1705.000000	13.218521
1706.000000	13.198364
1707.000000	13.152634
1708.000000	13.162041
1709.000000	13.162411
1710.000000	13.104773
1711.000000	13.076525
1712.000000	13.079338
1713.000000	13.040412
1714.000000	12.855293
1715.000000	12.799093
1716.000000	12.781678
1717.000000	12.741332
1718.000000	12.716270
1719.000000	12.702808
1720.000000	12.678735
1721.000000	12.666347
1722.000000	12.644480
1723.000000	12.616991
1724.000000	12.599456
1725.000000	12.582654
1726.000000	12.591295
1727.000000	12.588532
1728.000000	12.572702
1729.000000	12.560259
1730.000000	12.598300
1731.000000	12.608264
1732.000000	12.623536
1733.000000	12.647819
1734.000000	12.652696
1735.000000	12.668097
1736.000000	12.671128
1737.000000	12.692294
1738.000000	12.703415
1739.000000	12.728776
1740.000000	12.746533
1741.000000	12.757696
1742.000000	12.760041
1743.000000	12.973294
1744.000000	12.968598
1745.000000	12.987074
1746.000000	13.018761
1747.000000	13.032153
1748.000000	13.058280
1749.000000	13.062087
1750.000000	13.073421
1751.000000	13.083614
1752.000000	13.108061
1753.000000	13.125341
1754.000000	13.130547
1755.000000	13.117155
1756.000000	13.117813
1757.000000	13.127274
1758.000000	13.149670
1759.000000	13.169564
1760.000000	13.181149
1761.000000	13.170689
1762.000000	13.161392
1763.000000	13.191974
1764.000000	13.206814
1765.000000	13.214349
1766.000000	13.212245
1767.000000	13.212394
1768.000000	13.224205
1769.000000	13.253504
1770.000000	13.234927
1771.000000	13.255756
1772.000000	13.268755
1773.000000	13.281890
1774.000000	13.322498
1775.000000	13.316806
1776.000000	13.325302
1777.000000	13.326473
1778.000000	13.315566
1779.000000	13.325918
1780.000000	13.325847
1781.000000	13.342387
1782.000000	13.350696
1783.000000	13.349683
1784.000000	13.341576
1785.000000	13.531543
1786.000000	13.537160
1787.000000	13.542683
1788.000000	13.567299
1789.000000	13.582309
1790.000000	13.601458
1791.000000	13.601227
1792.000000	13.592175
1793.000000	13.576882
1794.000000	13.571507
1795.000000	13.592641
1796.000000	13.602148
1797.000000	13.615448
1798.000000	13.648372
1799.000000	13.644727
1800.000000	13.629640
1801.000000	13.630079
1802.000000	13.677507
1803.000000	13.715562
1804.000000	13.681416
1805.000000	13.665983
1806.000000	13.676001
1807.000000	13.685300
1808.000000	13.729729
1809.000000	13.761276
1810.000000	13.742485
1811.000000	13.710785
1812.000000	13.713178
1813.000000	13.762276
1814.000000	13.755399
1815.000000	13.747849
1816.000000	13.787195
1817.000000	13.832253
1818.000000	13.857650
1819.000000	13.831926
1820.000000	13.766264
1821.000000	13.751916
1822.000000	13.772688
1823.000000	13.827150
1824.000000	13.853391
1825.000000	13.875931
1826.000000	13.912350
1827.000000	13.924115
1828.000000	13.952861
1829.000000	13.948896
1830.000000	13.881898
1831.000000	13.894649
1832.000000	13.952048
1833.000000	14.002152
1834.000000	14.042010
1835.000000	14.049863
1836.000000	14.205793
1837.000000	14.204421
1838.000000	14.234864
1839.000000	14.217905
1840.000000	14.142208
1841.000000	14.111003
1842.000000	14.152072
1843.000000	14.193980
1844.000000	14.271444
1845.000000	14.320739
1846.000000	14.282571
1847.000000	14.215634
1848.000000	14.168253
1849.000000	14.134155
1850.000000	14.175075
1851.000000	14.235750
1852.000000	14.261513
1853.000000	14.244726
1854.000000	14.217456
1855.000000	14.222926
1856.000000	14.265470
1857.000000	14.274059
1858.000000	14.196464
1859.000000	14.180626
1860.000000	14.202694
1861.000000	14.195499
1862.000000	14.228076
1863.000000	14.119004
1864.000000	14.201890
1865.000000	14.240187
1866.000000	14.264049
1867.000000	14.255322
1868.000000	14.200142
1869.000000	14.111185
1870.000000	14.038020
1871.000000	13.884110
1872.000000	13.751059
1873.000000	13.701250
1874.000000	13.440234
1875.000000	13.354506
1876.000000	13.386664
1877.000000	13.289241
1878.000000	13.219906
1879.000000	13.200664
1880.000000	12.984147
1881.000000	12.979822
1882.000000	12.934366
1883.000000	12.854750
1884.000000	12.783159
1885.000000	12.519526
1886.000000	12.463176
1887.000000	12.417434
1888.000000	12.338137
1889.000000	12.338925
1890.000000	12.265615
1891.000000	11.939230
1892.000000	11.792272
1893.000000	11.695780
1894.000000	11.691726
1895.000000	11.438050
1896.000000	11.387296
1897.000000	11.333689
1898.000000	11.141952
1899.000000	10.828691
1900.000000	10.775433
1901.000000	10.689798
1902.000000	10.582680
1903.000000	10.342710
1904.000000	10.249105
1905.000000	10.059390
1906.000000	10.002508
1907.000000	9.701452
1908.000000	9.683346
1909.000000	9.595668
1910.000000	9.601080
1911.000000	9.580246
1912.000000	9.323108
1913.000000	9.196576
1914.000000	9.144712
1915.000000	9.134247
1916.000000	9.150425
1917.000000	9.105184
1918.000000	9.018177
1919.000000	8.959387
1920.000000	8.918488
1921.000000	8.845092
1922.000000	8.635169
1923.000000	8.539892
1924.000000	8.569721
1925.000000	8.656202
1926.000000	8.557633
1927.000000	8.546980
1928.000000	8.537773
1929.000000	8.429039
1930.000000	8.377038
1931.000000	8.324218
1932.000000	8.439933
1933.000000	8.383819
1934.000000	8.353351
1935.000000	8.362348
1936.000000	8.370021
1937.000000	8.326329
1938.000000	8.382570
1939.000000	8.407976
1940.000000	8.421738
1941.000000	8.395961
1942.000000	8.373393
1943.000000	8.392162
1944.000000	8.359902
1945.000000	8.338250
1946.000000	8.424813
1947.000000	8.405837
1948.000000	8.376392
1949.000000	8.436695
1950.000000	8.406878
1951.000000	8.488274
1952.000000	8.474816
1953.000000	8.523024
1954.000000	8.471606
1955.000000	8.489929
1956.000000	8.787036
1957.000000	8.482556
1958.000000	8.757886
1959.000000	8.798333
1960.000000	8.864941
1961.000000	8.849927
1962.000000	8.850951
1963.000000	8.827569
1964.000000	8.917607
1965.000000	8.981226
1966.000000	8.976005
1967.000000	8.934119
1968.000000	8.940991
1969.000000	8.956297
1970.000000	8.940895
1971.000000	8.923245
1972.000000	8.990655
1973.000000	9.000873
1974.000000	9.060259
1975.000000	9.004508
1976.000000	9.102011
1977.000000	9.138470
1978.000000	9.128444
1979.000000	9.403146
1980.000000	9.372953
1981.000000	9.376591
1982.000000	9.392217
1983.000000	9.382691
1984.000000	9.441505
1985.000000	9.432134
1986.000000	9.497379
1987.000000	9.502561
1988.000000	9.509998
1989.000000	9.550051
1990.000000	9.636874
1991.000000	9.596574
1992.000000	9.633304
1993.000000	9.646100
1994.000000	9.640210
1995.000000	9.717186
1996.000000	9.690770
1997.000000	9.696322
1998.000000	9.908164
1999.000000	9.748609
2000.000000	9.974914
2001.000000	9.967310
2002.000000	9.975919
2003.000000	9.995625
2004.000000	9.772507
2005.000000	9.972049
2006.000000	10.090903
2007.000000	10.100745
2008.000000	10.107904
2009.000000	10.076253
2010.000000	10.078018
2011.000000	10.060162
2012.000000	10.046463
2013.000000	10.082703
2014.000000	10.078410
2015.000000	10.088628
2016.000000	10.080611
2017.000000	10.012838
2018.000000	10.041481
2019.000000	10.042499
2020.000000	10.011861
2021.000000	10.024046
2022.000000	9.795974
2023.000000	10.034919
2024.000000	9.830047
2025.000000	9.854491
2026.000000	9.764886
2027.000000	9.769833
2028.000000	9.799284
2029.000000	9.842602
2030.000000	9.790780
2031.000000	9.747508
2032.000000	9.707753
2033.000000	9.706371
2034.000000	9.711472
2035.000000	9.714443
2036.000000	9.673994
2037.000000	9.704291
2038.000000	9.483492
2039.000000	9.334208
2040.000000	9.263523
2041.000000	9.387301
2042.000000	9.325311
2043.000000	9.272302
2044.000000	9.348150
2045.000000	9.378736
2046.000000	9.285070
2047.000000	9.242396
2048.000000	9.217312
2049.000000	9.165157
2050.000000	9.205126
2051.000000	9.271115
2052.000000	9.266525
2053.000000	9.198944
2054.000000	9.109629
2055.000000	9.117511
2056.000000	9.089958
2057.000000	9.133845
2058.000000	9.235931
2059.000000	9.190219
2060.000000	9.250069
2061.000000	9.328274
2062.000000	9.407374
2063.000000	9.474406
2064.000000	9.368363
2065.000000	9.344732
2066.000000	9.395279
2067.000000	9.373958
2068.000000	9.507856
2069.000000	9.852256
2070.000000	9.799929
2071.000000	9.808721
2072.000000	9.909233
2073.000000	9.960128
2074.000000	9.916243
2075.000000	9.904622
2076.000000	9.869868
2077.000000	9.810767
2078.000000	9.832322
2079.000000	9.852086
2080.000000	9.969842
2081.000000	9.997083
2082.000000	9.930087
2083.000000	10.040749
2084.000000	10.118197
2085.000000	10.089269
2086.000000	10.037206
2087.000000	9.939127
2088.000000	9.991908
2089.000000	10.292222
2090.000000	10.121282
2091.000000	10.194797
2092.000000	10.271733
2093.000000	10.187458
2094.000000	10.115240
2095.000000	10.182642
2096.000000	10.262863
2097.000000	10.212447
2098.000000	10.646383
2099.000000	10.468548
2100.000000	10.283162
2101.000000	10.250755
2102.000000	10.594868
2103.000000	10.604517
2104.000000	10.578830
2105.000000	10.452252
2106.000000	10.188074
2107.000000	10.535662
2108.000000	10.647678
2109.000000	10.555147
2110.000000	10.578250
2111.000000	10.540021
2112.000000	10.598513
2113.000000	10.699531
2114.000000	10.736261
2115.000000	10.590025
2116.000000	10.267606
2117.000000	10.357888
2118.000000	10.633558
2119.000000	10.847944
2120.000000	11.011681
2121.000000	10.825658
2122.000000	10.616870
2123.000000	10.778430
2124.000000	10.857877
2125.000000	10.785700
2126.000000	10.787358
2127.000000	10.823191
2128.000000	10.728655
2129.000000	10.632620
2130.000000	10.638976
2131.000000	10.724402
2132.000000	10.863591
2133.000000	10.840060
2134.000000	10.560676
2135.000000	10.453153
2136.000000	10.407305
2137.000000	10.492212
2138.000000	10.589399
2139.000000	10.677263
2140.000000	10.674081
2141.000000	10.393566
2142.000000	10.452612
2143.000000	10.464197
2144.000000	10.817951
2145.000000	10.686310
2146.000000	10.465433
2147.000000	10.314079
2148.000000	10.489350
2149.000000	10.504596
2150.000000	10.446675
2151.000000	10.133019
2152.000000	10.101420
2153.000000	10.246526
2154.000000	10.373945
2155.000000	9.951317
2156.000000	9.970924
2157.000000	10.180049
2158.000000	9.978995
2159.000000	9.761141
2160.000000	9.870507
2161.000000	9.930286
2162.000000	10.009581
2163.000000	9.789500
2164.000000	9.614705
2165.000000	9.437115
2166.000000	9.454522
2167.000000	9.759510
2168.000000	9.504956
2169.000000	9.336400
2170.000000	9.629864
2171.000000	9.460260
2172.000000	9.299207
2173.000000	9.647460
2174.000000	9.879420
2175.000000	9.591093
2176.000000	9.367051
2177.000000	9.499474
2178.000000	9.542746
2179.000000	9.619660
2180.000000	9.349946
2181.000000	9.400564
2182.000000	9.203931
2183.000000	9.712702
2184.000000	9.658403
2185.000000	9.308985
2186.000000	9.410213
2187.000000	9.314169
2188.000000	9.500035
2189.000000	9.297255
2190.000000	9.309963
2191.000000	9.697267
2192.000000	9.416013
2193.000000	9.269974
2194.000000	9.207975
2195.000000	9.357530
2196.000000	9.143066
2197.000000	9.346065
2198.000000	9.181856
2199.000000	9.168888
2200.000000	9.379845
2201.000000	9.546126
2202.000000	9.465617
2203.000000	9.542141
2204.000000	9.699372
2205.000000	9.377093
2206.000000	9.198924
2207.000000	9.362640
2208.000000	9.683361
2209.000000	9.385269
2210.000000	9.769041
2211.000000	9.551246
2212.000000	9.366958
2213.000000	9.469648
2214.000000	9.783453
2215.000000	9.640300
2216.000000	9.620110
2217.000000	9.392972
2218.000000	9.429286
2219.000000	9.725680
2220.000000	9.874789
2221.000000	9.623053
2222.000000	9.460035
2223.000000	9.822401
2224.000000	10.025336
2225.000000	9.853940
2226.000000	9.919077
2227.000000	9.819201
2228.000000	9.494494
2229.000000	9.697822
2230.000000	9.684589
2231.000000	10.136991
2232.000000	10.034856
2233.000000	10.063719
2234.000000	9.941754
2235.000000	10.068068
2236.000000	9.865865
2237.000000	9.816400
2238.000000	9.989935
2239.000000	10.277022
2240.000000	9.947564
2241.000000	10.000280
2242.000000	9.994120
2243.000000	9.925283
2244.000000	9.907524
2245.000000	9.767806
2246.000000	9.918883
2247.000000	10.047073
2248.000000	9.895332
2249.000000	9.731748
2250.000000	9.760265
2251.000000	9.944938
2252.000000	9.792078
2253.000000	9.715254
2254.000000	9.850677
2255.000000	9.809842
2256.000000	9.781661
2257.000000	9.465866
2258.000000	9.539287
2259.000000	9.425957
2260.000000	9.476367
2261.000000	9.580484
2262.000000	9.833083
2263.000000	9.770612
2264.000000	9.690824
2265.000000	9.640043
2266.000000	9.347554
2267.000000	9.512801
2268.000000	9.440861
2269.000000	9.608475
2270.000000	9.570806
2271.000000	9.668026
2272.000000	9.471390
2273.000000	9.600953
2274.000000	9.735596
2275.000000	9.542808
2276.000000	9.163193
2277.000000	9.583853
2278.000000	9.544876
2279.000000	9.667426
2280.000000	9.850083
2281.000000	9.598699
2282.000000	9.634316
2283.000000	9.676170
2284.000000	9.628339
2285.000000	9.512716
2286.000000	9.426570
2287.000000	9.668222
2288.000000	9.496763
2289.000000	9.629975
2290.000000	9.820340
2291.000000	9.889616
2292.000000	10.041507
2293.000000	10.355613
2294.000000	9.913498
2295.000000	10.032725
2296.000000	10.081475
2297.000000	9.773078
2298.000000	9.730785
2299.000000	9.679947
2300.000000	10.056946
2301.000000	9.949955
2302.000000	10.050905
2303.000000	9.936537
2304.000000	9.940673
2305.000000	10.283197
2306.000000	10.276743
2307.000000	10.168678
2308.000000	9.924932
2309.000000	10.155434
2310.000000	10.137744
2311.000000	10.128136
2312.000000	10.135430
2313.000000	10.109767
2314.000000	10.220945
2315.000000	10.570202
2316.000000	10.736265
2317.000000	10.886031
2318.000000	10.970082
2319.000000	10.795950
2320.000000	10.694828
2321.000000	10.667750
2322.000000	10.889401
2323.000000	11.030603
2324.000000	10.738165
2325.000000	10.729248
2326.000000	10.831341
2327.000000	11.018573
2328.000000	11.095369
2329.000000	10.965549
2330.000000	10.809327
2331.000000	10.682986
2332.000000	10.918318
2333.000000	10.869621
2334.000000	11.015569
2335.000000	11.372707
2336.000000	11.264313
2337.000000	10.954016
2338.000000	11.119058
2339.000000	11.224559
2340.000000	11.167698
2341.000000	11.239772
2342.000000	11.602224
2343.000000	11.932430
2344.000000	12.002154
2345.000000	11.651034
2346.000000	11.243017
2347.000000	11.436410
2348.000000	11.689075
2349.000000	11.903665
2350.000000	12.112361
2351.000000	11.666961
2352.000000	11.687571
2353.000000	11.721357
2354.000000	11.623367
2355.000000	11.645730
2356.000000	11.918948
2357.000000	12.019785
2358.000000	12.006167
2359.000000	12.113019
2360.000000	12.197013
2361.000000	12.065574
2362.000000	12.147828
2363.000000	12.355953
2364.000000	12.492771
2365.000000	12.121097
2366.000000	12.001112
2367.000000	11.772285
2368.000000	12.043032
2369.000000	12.049440
2370.000000	12.402172
2371.000000	12.557578
2372.000000	12.355004
2373.000000	12.647099
2374.000000	12.626498
2375.000000	12.396062
2376.000000	12.065980
2377.000000	12.396831
2378.000000	12.661253
2379.000000	12.492555
2380.000000	12.407464
2381.000000	12.571311
2382.000000	12.862537
2383.000000	12.988383
2384.000000	12.543204
2385.000000	12.380710
2386.000000	12.867984
2387.000000	13.035872
2388.000000	12.692469
2389.000000	13.143075
2390.000000	12.712685
2391.000000	12.794304
2392.000000	13.326291
2393.000000	13.319190
2394.000000	13.755747
2395.000000	13.004435
2396.000000	13.367875
2397.000000	13.673451
2398.000000	13.613126
2399.000000	13.656043
2400.000000	13.396880
2401.000000	13.032664
2402.000000	13.180116
2403.000000	12.933362
2404.000000	13.143019
2405.000000	13.073633
2406.000000	13.506893
2407.000000	13.914086
2408.000000	13.959437
2409.000000	14.257791
2410.000000	13.734333
2411.000000	13.279001
2412.000000	13.542975
2413.000000	13.519486
2414.000000	13.463053
2415.000000	13.101458
2416.000000	13.558726
2417.000000	14.183077
2418.000000	13.810631
2419.000000	14.445360
2420.000000	14.019020
2421.000000	13.821586
2422.000000	13.541323
2423.000000	13.304034
2424.000000	14.079798
2425.000000	13.819048
2426.000000	14.022139
2427.000000	14.451655
2428.000000	14.491318
2429.000000	14.256306
2430.000000	14.048946
2431.000000	14.329467
2432.000000	14.956198
2433.000000	14.181661
2434.000000	13.483935
2435.000000	14.814651
2436.000000	14.457611
2437.000000	14.658767
2438.000000	14.733346
2439.000000	14.997283
2440.000000	15.277156
2441.000000	15.103564
2442.000000	14.997443
2443.000000	14.361930
2444.000000	15.291731
2445.000000	15.491352
2446.000000	15.670539
2447.000000	15.010561
2448.000000	15.452137
2449.000000	15.639419
2450.000000	16.162340
2451.000000	15.937058
2452.000000	16.144761
2453.000000	15.390287
2454.000000	16.679598
2455.000000	16.446069
2456.000000	16.818313
2457.000000	15.631763
2458.000000	17.313782
2459.000000	16.879738
2460.000000	17.141603
2461.000000	17.126159
2462.000000	17.255625
2463.000000	18.161932
2464.000000	19.119418
2465.000000	18.664546
2466.000000	18.025486
2467.000000	19.010740
2468.000000	19.201819
2469.000000	20.769488
2470.000000	20.027363
2471.000000	20.015713
2472.000000	19.448520
2473.000000	19.070372
2474.000000	21.346890
2475.000000	20.909422
2476.000000	21.522261
2477.000000	22.019309
2478.000000	21.923731
2479.000000	22.984248
2480.000000	22.821759
2481.000000	23.731081
2482.000000	23.510942
2483.000000	25.241815
2484.000000	24.982322
2485.000000	24.172622
2486.000000	25.029222
2487.000000	25.901442
2488.000000	24.914144
2489.000000	26.413283
2490.000000	27.332702
2491.000000	27.390606
2492.000000	28.122284
2493.000000	28.283959
2494.000000	28.965288
2495.000000	29.821421
2496.000000	30.321872
2497.000000	30.462118
2498.000000	29.629308
2499.000000	30.671970
2500.000000	29.997426
2501.000000	9.225905
2502.000000	13.608058
2503.000000	15.102599
2504.000000	14.860415
2505.000000	16.184401
2506.000000	10.622299
2507.000000	13.317649
2508.000000	15.405240
2509.000000	14.269698
2510.000000	9.706031
2511.000000	12.943590
2512.000000	9.955922
2513.000000	11.716264
2514.000000	11.968702
2515.000000	9.465402
2516.000000	11.016582
2517.000000	11.153337
2518.000000	12.440766
2519.000000	13.138539
2520.000000	12.837170
2521.000000	11.206016
2522.000000	11.953640
2523.000000	11.516719
2524.000000	11.319365
2525.000000	14.258172
2526.000000	11.875434
2527.000000	11.025138
2528.000000	6.224237
2529.000000	7.290342
2530.000000	7.119010
2531.000000	7.147011
2532.000000	12.930862
2533.000000	10.109435
2534.000000	4.873239
2535.000000	6.401438
2536.000000	9.622875
2537.000000	7.337435
2538.000000	8.086897
2539.000000	9.701929
2540.000000	4.898482
2541.000000	5.101210
2542.000000	3.042115
2543.000000	9.981519
2544.000000	5.971587
2545.000000	1.598839
2546.000000	7.297837
2547.000000	6.179194
2548.000000	6.865088
2549.000000	10.328497
2550.000000	5.597316
2551.000000	4.270925
2552.000000	12.225876
2553.000000	12.867929
2554.000000	10.616218
2555.000000	10.148962
2556.000000	1.593748
2557.000000	3.260328
2558.000000	1.797607
2559.000000	3.083976
2560.000000	1.947089
2561.000000	1.378010
2562.000000	3.602497
2563.000000	5.260733
2564.000000	4.782092
2565.000000	9.358629
2566.000000	11.213087
2567.000000	11.350478
2568.000000	4.415599
2569.000000	0.556564
2570.000000	6.651966
2571.000000	4.424155
2572.000000	5.750546
2573.000000	5.025620
2574.000000	1.272792
2575.000000	2.733463
2576.000000	4.003144
2577.000000	6.567961
2578.000000	7.043561
2579.000000	0.448871
2580.000000	1.311188
2581.000000	1.331836
2582.000000	4.278067
2583.000000	6.793528
2584.000000	3.397860
2585.000000	2.564252
2586.000000	2.658863
2587.000000	3.344686
2588.000000	3.197820
2589.000000	0.646366
2590.000000	0.808223
2591.000000	0.366988
2592.000000	0.192050
2593.000000	0.438053
2594.000000	0.293661
2595.000000	0.151179
2596.000000	0.026799
2597.000000	3.909523
2598.000000	3.178516
2599.000000	2.710906
2600.000000	2.218548
2601.000000	0.407576
2602.000000	1.006991
2603.000000	2.828851
2604.000000	2.444751
2605.000000	0.856518
2606.000000	3.398072
2607.000000	7.194882
2608.000000	8.273998
2609.000000	4.757839
2610.000000	1.937543
2611.000000	6.773234
2612.000000	3.115654
2613.000000	1.744927
2614.000000	2.305027
2615.000000	5.425560
2616.000000	4.284360
2617.000000	4.821478
2618.000000	4.750838
2619.000000	3.061136
2620.000000	2.762737
2621.000000	2.750928
2622.000000	5.779820
2623.000000	0.257882
2624.000000	3.089208
2625.000000	8.970498
2626.000000	6.430853
2627.000000	2.242448
2628.000000	7.025035
2629.000000	2.936473
2630.000000	0.426739
2631.000000	0.632861
2632.000000	1.388616
2633.000000	1.147988
2634.000000	1.487046
2635.000000	2.811739
2636.000000	9.526920
2637.000000	2.469288
2638.000000	0.473762
2639.000000	4.392759
2640.000000	2.616295
2641.000000	2.685874
2642.000000	1.976363
2643.000000	0.213476
2644.000000	1.830770
2645.000000	0.954594
2646.000000	6.933111
2647.000000	0.142482
2648.000000	1.800577
2649.000000	2.881672
2650.000000	2.874036
2651.000000	4.313846
2652.000000	3.104128
2653.000000	0.007212
2654.000000	0.544755
2655.000000	4.650712
2656.000000	4.443035
2657.000000	0.478499
2658.000000	3.222356
2659.000000	1.796193
2660.000000	2.693228
2661.000000	3.139059
2662.000000	0.687520
2663.000000	1.263812
2664.000000	2.117148
2665.000000	4.269794
2666.000000	4.930231
2667.000000	0.043204
2668.000000	2.954575
2669.000000	3.221013
2670.000000	0.023405
2671.000000	5.958577
2672.000000	6.347910
2673.000000	5.013528
2674.000000	2.794203
2675.000000	1.740685
2676.000000	4.352101
2677.000000	4.028529
2678.000000	4.882784
2679.000000	2.330483
2680.000000	1.166514
2681.000000	0.674863
2682.000000	5.692917
2683.000000	0.776333
2684.000000	7.453118
2685.000000	6.677846
2686.000000	1.367969
2687.000000	6.149849
2688.000000	1.155837
2689.000000	7.921152
2690.000000	2.997496
2691.000000	9.287706
2692.000000	2.639135
2693.000000	6.145536
2694.000000	0.031254
2695.000000	2.683470
2696.000000	5.754930
2697.000000	0.494833
2698.000000	3.946646
2699.000000	3.992466
2700.000000	3.992608
2701.000000	5.695109
2702.000000	6.855612
2703.000000	2.094804
2704.000000	5.720352
2705.000000	4.655167
2706.000000	2.460590
2707.000000	4.285916
2708.000000	4.412417
2709.000000	9.957195
2710.000000	4.180981
2711.000000	0.719976
2712.000000	3.067429
2713.000000	4.864683
2714.000000	5.452713
2715.000000	1.705966
2716.000000	7.353062
2717.000000	0.633638
2718.000000	4.595346
2719.000000	1.312744
2720.000000	6.262208
2721.000000	0.682358
2722.000000	5.608347
2723.000000	2.046438
2724.000000	3.181981
2725.000000	0.411324
2726.000000	3.018002
2727.000000	0.184555
2728.000000	0.543341
2729.000000	8.311262
2730.000000	3.668470
2731.000000	6.534798
2732.000000	10.102930
2733.000000	0.288005
2734.000000	0.622678
2735.000000	4.506109
2736.000000	6.848471
2737.000000	5.138404
2738.000000	2.837407
2739.000000	11.381732
2740.000000	0.393434
2741.000000	4.862208
2742.000000	5.721555
2743.000000	0.161786
2744.000000	3.103633
2745.000000	2.651014
2746.000000	0.708026
2747.000000	11.410087
2748.000000	8.379003
2749.000000	5.967981
2750.000000	7.104302
2751.000000	2.187718
2752.000000	2.449630
2753.000000	0.071418
2754.000000	0.836012
2755.000000	3.482996
2756.000000	8.713889
2757.000000	0.327461
2758.000000	2.764293
2759.000000	1.170545
2760.000000	3.058449
2761.000000	0.487126
2762.000000	4.694270
2763.000000	3.026417
2764.000000	5.556092
2765.000000	7.054663
2766.000000	0.617870
2767.000000	10.418723
2768.000000	3.937807
2769.000000	11.020896
2770.000000	0.930199
2771.000000	1.360191
2772.000000	1.400566
2773.000000	1.605981
2774.000000	3.006335
2775.000000	5.304927
2776.000000	4.733019
2777.000000	11.528669
2778.000000	1.147917
2779.000000	4.748151
2780.000000	4.868359
2781.000000	6.677209
2782.000000	0.616456
2783.000000	1.863226
2784.000000	10.064534
2785.000000	3.234943
2786.000000	2.821992
2787.000000	0.285600
2788.000000	2.496087
2789.000000	2.524654
2790.000000	1.197344
2791.000000	1.795768
2792.000000	1.315643
2793.000000	2.574434
2794.000000	1.458973
2795.000000	5.122989
2796.000000	2.021689
2797.000000	4.576890
2798.000000	7.675220
2799.000000	2.121745
2800.000000	6.094200
2801.000000	8.650886
2802.000000	1.258862
2803.000000	0.159806
2804.000000	6.640510
2805.000000	8.923122
2806.000000	10.059160
2807.000000	3.145352
2808.000000	1.754403
2809.000000	0.034507
2810.000000	0.837709
2811.000000	3.127038
2812.000000	3.041691
2813.000000	3.657227
2814.000000	0.000424
2815.000000	2.512138
2816.000000	1.575151
2817.000000	1.180020
2818.000000	1.667711
2819.000000	3.499330
2820.000000	7.740486
2821.000000	5.271552
2822.000000	0.401849
2823.000000	4.999386
2824.000000	0.709087
2825.000000	1.654418
2826.000000	1.446104
2827.000000	4.364617
2828.000000	10.512274
2829.000000	2.255388
2830.000000	4.203891
2831.000000	0.495965
2832.000000	0.522198
2833.000000	3.458813
2834.000000	1.758009
2835.000000	4.128372
2836.000000	7.149557
2837.000000	3.285713
2838.000000	4.513463
2839.000000	3.965879
2840.000000	0.742886
2841.000000	2.546716
2842.000000	4.777921
2843.000000	3.971324
2844.000000	4.388093
2845.000000	5.268158
2846.000000	5.613226
2847.000000	1.302349
2848.000000	1.512996
2849.000000	0.161150
2850.000000	0.131593
2851.000000	4.530504
2852.000000	4.986941
2853.000000	0.957635
2854.000000	3.055762
2855.000000	4.780537
2856.000000	1.282692
2857.000000	5.004831
2858.000000	3.004214
2859.000000	3.017932
2860.000000	4.043944
2861.000000	1.637094
2862.000000	4.239176
2863.000000	1.032517
2864.000000	0.800516
2865.000000	0.103520
2866.000000	0.561796
2867.000000	4.338736
2868.000000	7.560032
2869.000000	1.638720
2870.000000	0.068448
2871.000000	3.479460
2872.000000	4.069329
2873.000000	3.402244
2874.000000	2.491986
2875.000000	3.059651
2876.000000	5.964729
2877.000000	3.054913
2878.000000	2.041983
2879.000000	0.264175
2880.000000	5.586992
2881.000000	5.400033
2882.000000	3.720089
2883.000000	0.031466
2884.000000	3.648530
2885.000000	3.708916
2886.000000	1.115037
2887.000000	3.867450
2888.000000	1.041356
2889.000000	3.766687
2890.000000	2.737847
2891.000000	1.223224
2892.000000	2.277944
2893.000000	3.689754
2894.000000	0.846690
2895.000000	2.362019
2896.000000	2.704754
2897.000000	2.220598
2898.000000	1.731422
2899.000000	6.630257
2900.000000	6.129131
2901.000000	1.002819
2902.000000	4.768162
2903.000000	3.388809
2904.000000	6.830510
2905.000000	7.566891
2906.000000	2.676965
2907.000000	1.073317
2908.000000	5.698432
2909.000000	1.220537
2910.000000	0.828022
2911.000000	5.872168
2912.000000	5.565708
2913.000000	0.407930
2914.000000	2.726745
2915.000000	5.566345
2916.000000	1.010597
2917.000000	4.141029
2918.000000	4.963253
2919.000000	3.180991
2920.000000	0.321734
2921.000000	2.303188
2922.000000	1.799728
2923.000000	4.279835
2924.000000	0.294793
2925.000000	6.950435
2926.000000	3.715705
2927.000000	0.114127
2928.000000	4.115715
2929.000000	5.254157
2930.000000	1.787637
2931.000000	8.270674
2932.000000	2.759767
2933.000000	1.818679
2934.000000	0.652447
2935.000000	4.046843
2936.000000	3.740171
2937.000000	2.930604
2938.000000	5.846783
2939.000000	6.143768
2940.000000	0.218991
2941.000000	2.827932
2942.000000	3.263651
2943.000000	7.468038
2944.000000	4.640742
2945.000000	0.158180
2946.000000	1.413082
2947.000000	1.956989
2948.000000	6.104029
2949.000000	2.775960
2950.000000	2.632064
2951.000000	7.021287
2952.000000	4.566566
2953.000000	3.393547
2954.000000	1.052811
2955.000000	3.867803
2956.000000	4.384840
2957.000000	1.217001
2958.000000	2.056974
2959.000000	3.354302
2960.000000	3.021255
2961.000000	1.698400
2962.000000	6.701180
2963.000000	1.248609
2964.000000	1.502814
2965.000000	6.759375
2966.000000	3.240741
2967.000000	5.127868
2968.000000	15.746419
2969.000000	12.184793
2970.000000	3.087016
2971.000000	2.574081
2972.000000	0.735957
2973.000000	0.923552
2974.000000	4.444025
2975.000000	4.379042
2976.000000	2.336988
2977.000000	1.580666
2978.000000	0.031042
2979.000000	0.729593
2980.000000	7.362679
2981.000000	10.300283
2982.000000	4.243136
2983.000000	2.636801
2984.000000	1.973323
2985.000000	3.158646
2986.000000	5.152546
2987.000000	7.262764
2988.000000	0.133714
2989.000000	5.807044
2990.000000	4.534181
2991.000000	9.820228
2992.000000	4.546202
2993.000000	10.411794
2994.000000	2.939160
2995.000000	2.826730
2996.000000	4.128089
2997.000000	4.380668
2998.000000	8.633420
2999.000000	2.251357
3000.000000	9.358275
