Time1=100ms:Average1=5:Objective=10X:Aperture=1: (11/28/2018 10:18:11 AM)
11/28/2018 10:18:11 AM
Reflectance
10X
Ap#: 1
Avg1: 5.000000
Avg2: 0.000000
Int.Time1:100.000000

420.190645	4.482481
420.624620	4.432398
421.058582	4.403954
421.492531	4.364000
421.926468	4.328186
422.360391	4.303049
422.794301	4.287439
423.228199	4.284739
423.662083	4.283854
424.095955	4.294648
424.529813	4.300461
424.963658	4.321677
425.397491	4.320741
425.831310	4.327212
426.265116	4.344507
426.698909	4.353420
427.132689	4.370155
427.566455	4.390970
428.000209	4.414997
428.433949	4.435003
428.867676	4.469095
429.301389	4.501325
429.735090	4.542006
430.168777	4.575103
430.602451	4.599867
431.036111	4.614755
431.469759	4.645194
431.903392	4.673122
432.337013	4.704544
432.770620	4.744906
433.204213	4.789830
433.637794	4.848132
434.071360	4.919564
434.504914	4.997659
434.938453	5.091068
435.371979	5.188855
435.805492	5.291660
436.238991	5.401647
436.672477	5.506817
437.105949	5.614117
437.539407	5.719021
437.972852	5.827477
438.406283	5.930642
438.839700	6.051068
439.273104	6.179703
439.706494	6.311250
440.139871	6.456664
440.573233	6.605785
441.006582	6.758863
441.439917	6.916315
441.873238	7.065200
442.306546	7.201294
442.739839	7.343953
443.173119	7.476779
443.606385	7.613415
444.039636	7.745803
444.472874	7.888632
444.906099	8.030240
445.339309	8.192857
445.772505	8.368810
446.205687	8.547357
446.638855	8.738222
447.072009	8.939231
447.505149	9.142785
447.938275	9.351729
448.371387	9.557692
448.804485	9.761932
449.237569	9.960407
449.670638	10.148580
450.103694	10.324924
450.536735	10.491875
450.969762	10.663734
451.402774	10.838169
451.835773	11.022136
452.268757	11.208297
452.701727	11.395727
453.134683	11.590459
453.567624	11.780196
454.000551	11.967210
454.433464	12.148861
454.866362	12.316735
455.299246	12.483753
455.732116	12.645421
456.164971	12.794560
456.597811	12.940953
457.030638	13.090101
457.463449	13.237870
457.896246	13.394062
458.329029	13.543967
458.761797	13.691199
459.194551	13.834751
459.627290	13.985912
460.060014	14.138062
460.492724	14.292671
460.925419	14.444924
461.358099	14.596776
461.790765	14.744503
462.223416	14.888340
462.656052	15.019156
463.088674	15.147572
463.521281	15.277136
463.953873	15.402245
464.386450	15.520929
464.819012	15.643259
465.251560	15.764517
465.684093	15.893353
466.116611	16.030102
466.549114	16.169815
466.981602	16.307304
467.414075	16.445215
467.846533	16.576298
468.278977	16.706351
468.711405	16.826838
469.143818	16.932623
469.576216	17.032767
470.008600	17.128675
470.440968	17.206700
470.873321	17.284741
471.305659	17.353847
471.737982	17.422646
472.170289	17.480663
472.602582	17.535688
473.034859	17.590528
473.467122	17.642866
473.899369	17.695276
474.331600	17.758381
474.763817	17.826544
475.196018	17.905886
475.628204	18.000677
476.060375	18.109735
476.492530	18.222040
476.924670	18.332562
477.356795	18.432017
477.788904	18.523269
478.220998	18.603082
478.653076	18.673524
479.085139	18.734943
479.517186	18.788909
479.949219	18.839099
480.381235	18.905164
480.813236	18.979827
481.245221	19.069271
481.677191	19.168229
482.109146	19.272741
482.541084	19.386963
482.973008	19.498263
483.404915	19.598504
483.836807	19.687056
484.268683	19.762909
484.700544	19.822662
485.132388	19.866253
485.564217	19.901520
485.996031	19.926791
486.427828	19.935585
486.859610	19.938816
487.291376	19.936823
487.723126	19.933501
488.154860	19.929226
488.586579	19.937690
489.018281	19.949490
489.449968	19.976796
489.881639	20.029366
490.313293	20.102886
490.744932	20.198864
491.176555	20.305156
491.608162	20.415603
492.039753	20.514992
492.471328	20.598988
492.902886	20.662931
493.334429	20.703783
493.765956	20.718453
494.197466	20.718487
494.628960	20.713473
495.060439	20.706180
495.491901	20.712897
495.923347	20.740028
496.354776	20.781490
496.786190	20.851074
497.217587	20.944034
497.648968	21.048694
498.080332	21.153226
498.511681	21.255827
498.943013	21.351490
499.374328	21.427928
499.805628	21.486328
500.236911	21.525407
500.668177	21.546980
501.099427	21.540475
501.530661	21.519903
501.961878	21.473852
502.393079	21.413423
502.824264	21.338903
503.255431	21.245297
503.686583	21.151599
504.117717	21.056927
504.548835	20.969574
504.979937	20.892284
505.411022	20.837557
505.842090	20.806143
506.273142	20.793702
506.704177	20.794880
507.135195	20.803455
507.566197	20.808583
507.997182	20.801349
508.428150	20.775316
508.859102	20.725319
509.290036	20.640939
509.720954	20.532696
510.151855	20.400286
510.582739	20.250071
511.013607	20.095366
511.444457	19.945373
511.875291	19.816620
512.306107	19.703410
512.736907	19.621801
513.167690	19.566471
513.598456	19.530665
514.029205	19.510608
514.459936	19.497908
514.890651	19.485909
515.321349	19.469475
515.752030	19.449178
516.182693	19.418043
516.613340	19.374227
517.043969	19.312364
517.474582	19.241311
517.905177	19.154310
518.335755	19.063828
518.766315	18.967721
519.196859	18.867110
519.627385	18.765196
520.057894	18.669650
520.488386	18.587407
520.918860	18.525890
521.349318	18.485273
521.779757	18.470431
522.210180	18.491377
522.640585	18.547455
523.070973	18.644070
523.501343	18.770172
523.931696	18.925217
524.362031	19.098799
524.792349	19.293369
525.222650	19.484487
525.652933	19.674962
526.083198	19.852221
526.513446	20.018568
526.943677	20.176343
527.373890	20.319516
527.804085	20.457343
528.234262	20.596759
528.664422	20.741055
529.094565	20.893730
529.524689	21.059114
529.954796	21.245077
530.384885	21.443385
530.814957	21.662036
531.245011	21.895753
531.675047	22.134594
532.105065	22.375388
532.535065	22.611867
532.965048	22.837871
533.395013	23.049612
533.824959	23.235234
534.254888	23.397546
534.684799	23.529427
535.114693	23.642317
535.544568	23.723670
535.974425	23.775490
536.404264	23.797874
536.834086	23.799063
537.263889	23.777834
537.693674	23.737765
538.123441	23.678762
538.553190	23.615876
538.982921	23.548720
539.412634	23.486173
539.842329	23.428330
540.272006	23.375907
540.701664	23.331346
541.131304	23.302623
541.560926	23.277127
541.990530	23.261578
542.420116	23.247376
542.849683	23.227780
543.279232	23.199218
543.708763	23.165821
544.138275	23.109817
544.567769	23.035859
544.997245	22.938560
545.426702	22.824572
545.856141	22.694561
546.285562	22.553156
546.714964	22.402087
547.144347	22.252644
547.573713	22.105251
548.003059	21.972976
548.432387	21.850683
548.861697	21.736856
549.290988	21.645856
549.720260	21.571953
550.149514	21.518034
550.578750	21.480206
551.007966	21.458328
551.437164	21.451538
551.866344	21.451971
552.295504	21.456892
552.724646	21.459196
553.153769	21.459741
553.582874	21.447091
554.011960	21.422822
554.441027	21.378030
554.870075	21.316590
555.299104	21.234252
555.728115	21.132946
556.157106	21.013572
556.586079	20.881274
557.015033	20.738924
557.443968	20.591519
557.872884	20.447005
558.301781	20.312603
558.730659	20.182782
559.159518	20.064678
559.588358	19.958838
560.017180	19.868425
560.445982	19.793385
560.874765	19.729757
561.303528	19.673164
561.732273	19.622586
562.160999	19.578179
562.589705	19.533926
563.018393	19.489529
563.447061	19.443758
563.875710	19.389186
564.304340	19.333849
564.732950	19.272401
565.161542	19.204851
565.590114	19.135011
566.018666	19.061424
566.447200	18.984192
566.875714	18.910149
567.304208	18.841026
567.732684	18.776816
568.161140	18.721595
568.589576	18.678945
569.017993	18.650864
569.446391	18.642204
569.874769	18.656224
570.303128	18.688602
570.731467	18.748559
571.159787	18.828164
571.588087	18.930636
572.016368	19.057951
572.444629	19.204006
572.872870	19.368343
573.301092	19.544448
573.729294	19.719026
574.157476	19.896260
574.585639	20.065562
575.013782	20.223355
575.441906	20.366437
575.870009	20.484848
576.298093	20.583649
576.726157	20.654188
577.154202	20.706579
577.582226	20.738119
578.010231	20.753448
578.438216	20.754966
578.866181	20.742593
579.294126	20.724984
579.722051	20.701450
580.149957	20.674872
580.577842	20.643310
581.005707	20.612796
581.433553	20.578100
581.861378	20.536925
582.289184	20.491256
582.716969	20.438894
583.144734	20.377624
583.572479	20.309477
584.000205	20.226734
584.427910	20.134811
584.855594	20.028399
585.283259	19.913001
585.710904	19.787412
586.138528	19.654454
586.566132	19.512939
586.993716	19.370775
587.421280	19.224668
587.848823	19.078868
588.276346	18.933824
588.703849	18.788218
589.131332	18.650690
589.558794	18.514750
589.986236	18.388187
590.413657	18.268731
590.841058	18.156197
591.268438	18.054734
591.695799	17.967207
592.123138	17.896525
592.550458	17.840452
592.977756	17.806585
593.405034	17.791487
593.832292	17.803544
594.259529	17.836962
594.686746	17.895853
595.113942	17.977207
595.541117	18.078685
595.968272	18.196935
596.395406	18.327403
596.822519	18.465787
597.249612	18.609541
597.676684	18.755891
598.103735	18.895987
598.530766	19.027233
598.957775	19.148026
599.384764	19.254280
599.811733	19.347148
600.238680	19.429099
600.665606	19.492375
601.092512	19.545165
601.519397	19.584468
601.946261	19.618932
602.373104	19.644099
602.799926	19.662930
603.226727	19.671120
603.653507	19.676535
604.080266	19.676039
604.507004	19.664690
604.933721	19.640745
605.360417	19.604305
605.787092	19.551987
606.213746	19.482796
606.640379	19.395487
607.066991	19.288087
607.493581	19.163606
607.920150	19.016283
608.346699	18.852411
608.773226	18.673976
609.199731	18.483967
609.626216	18.285481
610.052679	18.079847
610.479121	17.873455
610.905542	17.661599
611.331941	17.455769
611.758319	17.251498
612.184676	17.051953
612.611011	16.856587
613.037325	16.669443
613.463617	16.487394
613.889888	16.312929
614.316138	16.144680
614.742366	15.987203
615.168573	15.837283
615.594758	15.696074
616.020921	15.569969
616.447063	15.460537
616.873184	15.365147
617.299283	15.286958
617.725360	15.231614
618.151416	15.200135
618.577450	15.192500
619.003462	15.212266
619.429453	15.257001
619.855422	15.329836
620.281369	15.424611
620.707295	15.543488
621.133199	15.688030
621.559081	15.851854
621.984941	16.029147
622.410779	16.218756
622.836596	16.413853
623.262391	16.614922
623.688163	16.814948
624.113914	17.015289
624.539644	17.214708
624.965351	17.409256
625.391036	17.595953
625.816699	17.775905
626.242340	17.948419
626.667960	18.112580
627.093557	18.271444
627.519132	18.421600
627.944685	18.566352
628.370216	18.704034
628.795725	18.835341
629.221212	18.949449
629.646677	19.050136
630.072119	19.135152
630.497540	19.202889
630.922938	19.248223
631.348314	19.270204
631.773668	19.266837
632.198999	19.235187
632.624308	19.179618
633.049595	19.096503
633.474860	18.990429
633.900102	18.863411
634.325322	18.714671
634.750520	18.549155
635.175695	18.371464
635.600848	18.186506
636.025978	17.996995
636.451086	17.802839
636.876171	17.610069
637.301234	17.420626
637.726275	17.232505
638.151293	17.048943
638.576288	16.873349
639.001261	16.703517
639.426211	16.539979
639.851139	16.381986
640.276044	16.230274
640.700927	16.085249
641.125787	15.942449
641.550624	15.801610
641.975438	15.663363
642.400230	15.530416
642.824999	15.399800
643.249745	15.273081
643.674469	15.150999
644.099169	15.037328
644.523847	14.931984
644.948502	14.836567
645.373135	14.755398
645.797744	14.681213
646.222330	14.619553
646.646894	14.569446
647.071435	14.528297
647.495953	14.496312
647.920447	14.473822
648.344919	14.458409
648.769368	14.449204
649.193794	14.443506
649.618197	14.444222
650.042576	14.447509
650.466933	14.454252
650.891267	14.461273
651.315577	14.469742
651.739864	14.480224
652.164129	14.493589
652.588370	14.509857
653.012587	14.525474
653.436782	14.542459
653.860953	14.562541
654.285102	14.586252
654.709226	14.614296
655.133328	14.643597
655.557406	14.678859
655.981461	14.718726
656.405493	14.765872
656.829501	14.812399
657.253486	14.858434
657.677448	14.904398
658.101386	14.950109
658.525301	14.992317
658.949192	15.029952
659.373060	15.064157
659.796904	15.093355
660.220725	15.116756
660.644522	15.136678
661.068296	15.153809
661.492046	15.168918
661.915772	15.180031
662.339475	15.193360
662.763154	15.207226
663.186810	15.224334
663.610442	15.248473
664.034050	15.281308
664.457635	15.325236
664.881196	15.380470
665.304733	15.445900
665.728247	15.524732
666.151736	15.618919
666.575202	15.726280
666.998644	15.845396
667.422062	15.974541
667.845457	16.114520
668.268827	16.264852
668.692174	16.419087
669.115496	16.576464
669.538795	16.731363
669.962070	16.889665
670.385321	17.043038
670.808547	17.187142
671.231750	17.319136
671.654929	17.437934
672.078084	17.548101
672.501214	17.641879
672.924321	17.722057
673.347404	17.790259
673.770462	17.842816
674.193496	17.883487
674.616506	17.913664
675.039492	17.934515
675.462454	17.943593
675.885391	17.943488
676.308305	17.937447
676.731194	17.923085
677.154058	17.902982
677.576899	17.875664
677.999715	17.840984
678.422507	17.802809
678.845274	17.758390
679.268017	17.709129
679.690736	17.651745
680.113430	17.589521
680.536100	17.520849
680.958746	17.446417
681.381367	17.363577
681.803963	17.280139
682.226535	17.194013
682.649083	17.107411
683.071605	17.019948
683.494104	16.932844
683.916578	16.852217
684.339027	16.777318
684.761451	16.709157
685.183851	16.647407
685.606227	16.591858
686.028577	16.542097
686.450903	16.500632
686.873204	16.465197
687.295481	16.431000
687.717733	16.401094
688.139959	16.373491
688.562162	16.348413
688.984339	16.324797
689.406492	16.299418
689.828619	16.272920
690.250722	16.240600
690.672800	16.204270
691.094853	16.164638
691.516881	16.122485
691.938884	16.071964
692.360863	16.015738
692.782816	15.960770
693.204744	15.900953
693.626647	15.841673
694.048526	15.781285
694.470379	15.725064
694.892207	15.670216
695.314010	15.620092
695.735788	15.574508
696.157540	15.534349
696.579268	15.500740
697.000970	15.474804
697.422648	15.456622
697.844300	15.446969
698.265926	15.445172
698.687528	15.455172
699.109104	15.475280
699.530655	15.500209
699.952181	15.536357
