PE UV       SUBTECH     SPECTRUM    ASCII       PEDS        4.00        
   -1
CICIMAUCR0201-3.ASC
24/06/06
13:45:31.00
24/06/06
13:45:31.00
Vinicio Soto Monge
C. cupreomarginata. Sex F. Ventral
250,000000
1
Lambda 1050
1050L1511233
PerkinElmer UV WinLab 6.3.2.0749 / 2.02.05 Lambda 900 UV/VIS/NIR, Aug  7 2015 09:38:08

0
0
3350/servo 860,8/2
0
0
UV/VIS
1
1
1
DoubleDePol,CommonBeamDepol,RBeamAtt,SBeamAtt,60mm sphere, WB InGaAs Detector
0
0
0
0
Program
Program
3350/servo 860,8/2
3350/0,2 860,8/0,2
3350/0,2 860,8/0,2
0
15.00
 
 
 
0
 
860,8
319,2
860,8
Front
100
on
S:100 R:100
0
0
0
0
 
0
 
 
 
0
 
 
0
0
0
0
0
 
 
 
 
0
0


0
0
#HDR
-1
-1
#GR
nm
%R
1.0
0.0
2500,000000
-1,000000
2251
8
54,950700
3,908500
#DATA
250.000000	4.940833
251.000000	4.921233
252.000000	4.943267
253.000000	4.917000
254.000000	4.881033
255.000000	4.867467
256.000000	4.877433
257.000000	4.843267
258.000000	4.843067
259.000000	4.821367
260.000000	4.818067
261.000000	4.811267
262.000000	4.789767
263.000000	4.761400
264.000000	4.719133
265.000000	4.711967
266.000000	4.693033
267.000000	4.670067
268.000000	4.686667
269.000000	4.645633
270.000000	4.608600
271.000000	4.606333
272.000000	4.608600
273.000000	4.581433
274.000000	4.588933
275.000000	4.583600
276.000000	4.547467
277.000000	4.532133
278.000000	4.541367
279.000000	4.521733
280.000000	4.500367
281.000000	4.494800
282.000000	4.518900
283.000000	4.507800
284.000000	4.494933
285.000000	4.488967
286.000000	4.472333
287.000000	4.478633
288.000000	4.473633
289.000000	4.486400
290.000000	4.494633
291.000000	4.479167
292.000000	4.467700
293.000000	4.463467
294.000000	4.460300
295.000000	4.481100
296.000000	4.488700
297.000000	4.484867
298.000000	4.473167
299.000000	4.449633
300.000000	4.456800
301.000000	4.450300
302.000000	4.440867
303.000000	4.441633
304.000000	4.443200
305.000000	4.433300
306.000000	4.437233
307.000000	4.452167
308.000000	4.442067
309.000000	4.455233
310.000000	4.456333
311.000000	4.439567
312.000000	4.413033
313.000000	4.429467
314.000000	4.431900
315.000000	4.437600
316.000000	5.170567
317.000000	6.096967
318.000000	5.862567
319.000000	5.566033
320.000000	5.518867
321.000000	5.473100
322.000000	5.364533
323.000000	5.174667
324.000000	5.073167
325.000000	4.930633
326.000000	4.991500
327.000000	5.090133
328.000000	4.845200
329.000000	4.807800
330.000000	4.878100
331.000000	4.746333
332.000000	4.736600
333.000000	4.820400
334.000000	4.799567
335.000000	4.653900
336.000000	4.757667
337.000000	4.927300
338.000000	4.800000
339.000000	4.652367
340.000000	4.602167
341.000000	4.531367
342.000000	4.550500
343.000000	4.627033
344.000000	4.514300
345.000000	4.448833
346.000000	4.508700
347.000000	4.494467
348.000000	4.467567
349.000000	4.536933
350.000000	4.490800
351.000000	4.433833
352.000000	4.430500
353.000000	4.432733
354.000000	4.477367
355.000000	4.491167
356.000000	4.418300
357.000000	4.368533
358.000000	4.400167
359.000000	4.418533
360.000000	4.416633
361.000000	4.430400
362.000000	4.469800
363.000000	4.431867
364.000000	4.358633
365.000000	4.397567
366.000000	4.434300
367.000000	4.389467
368.000000	4.393333
369.000000	4.300833
370.000000	4.190033
371.000000	4.127033
372.000000	4.051233
373.000000	4.086033
374.000000	4.114233
375.000000	4.347400
376.000000	4.536533
377.000000	4.569667
378.000000	4.575400
379.000000	4.593533
380.000000	4.608167
381.000000	4.620267
382.000000	4.628800
383.000000	4.655167
384.000000	4.689200
385.000000	4.706833
386.000000	4.715033
387.000000	4.737067
388.000000	4.763533
389.000000	4.800033
390.000000	4.825700
391.000000	4.850133
392.000000	4.878267
393.000000	4.908100
394.000000	4.935200
395.000000	4.965700
396.000000	5.001033
397.000000	5.030933
398.000000	5.065100
399.000000	5.102233
400.000000	5.139500
401.000000	5.177900
402.000000	5.212933
403.000000	5.246400
404.000000	5.285133
405.000000	5.328933
406.000000	5.374200
407.000000	5.410167
408.000000	5.452100
409.000000	5.482233
410.000000	5.538333
411.000000	5.577900
412.000000	5.624800
413.000000	5.675333
414.000000	5.719467
415.000000	5.769733
416.000000	5.812067
417.000000	5.859133
418.000000	5.901533
419.000000	5.956900
420.000000	5.996767
421.000000	6.053767
422.000000	6.111133
423.000000	6.165167
424.000000	6.211733
425.000000	6.262233
426.000000	6.314267
427.000000	6.374133
428.000000	6.425967
429.000000	6.488100
430.000000	6.552800
431.000000	6.607300
432.000000	6.665733
433.000000	6.716800
434.000000	6.782500
435.000000	6.850767
436.000000	6.921567
437.000000	6.984133
438.000000	7.045767
439.000000	7.124267
440.000000	7.188067
441.000000	7.258333
442.000000	7.313333
443.000000	7.392800
444.000000	7.453233
445.000000	7.532667
446.000000	7.599000
447.000000	7.648433
448.000000	7.715200
449.000000	7.786267
450.000000	7.863800
451.000000	7.912267
452.000000	7.995167
453.000000	8.042133
454.000000	8.105000
455.000000	8.172667
456.000000	8.221767
457.000000	8.300833
458.000000	8.358533
459.000000	8.434533
460.000000	8.501133
461.000000	8.577600
462.000000	8.636700
463.000000	8.709567
464.000000	8.782067
465.000000	8.850400
466.000000	8.932300
467.000000	9.006567
468.000000	9.087067
469.000000	9.158633
470.000000	9.255900
471.000000	9.338200
472.000000	9.437400
473.000000	9.531967
474.000000	9.622067
475.000000	9.733300
476.000000	9.828600
477.000000	9.926600
478.000000	10.036100
479.000000	10.139933
480.000000	10.267833
481.000000	10.393300
482.000000	10.522967
483.000000	10.634100
484.000000	10.749767
485.000000	10.852100
486.000000	10.955600
487.000000	11.072000
488.000000	11.198000
489.000000	11.307033
490.000000	11.440067
491.000000	11.573500
492.000000	11.716933
493.000000	11.864400
494.000000	12.006933
495.000000	12.179633
496.000000	12.329133
497.000000	12.518267
498.000000	12.690333
499.000000	12.864067
500.000000	13.057033
501.000000	13.256967
502.000000	13.470200
503.000000	13.679633
504.000000	13.891233
505.000000	14.120567
506.000000	14.341933
507.000000	14.571100
508.000000	14.813267
509.000000	15.063600
510.000000	15.307867
511.000000	15.564433
512.000000	15.834433
513.000000	16.099467
514.000000	16.380733
515.000000	16.645800
516.000000	16.931300
517.000000	17.216533
518.000000	17.513800
519.000000	17.789967
520.000000	18.090367
521.000000	18.381000
522.000000	18.690300
523.000000	18.986133
524.000000	19.291933
525.000000	19.593867
526.000000	19.897167
527.000000	20.191000
528.000000	20.483200
529.000000	20.769733
530.000000	21.057800
531.000000	21.339100
532.000000	21.627567
533.000000	21.900567
534.000000	22.184100
535.000000	22.451933
536.000000	22.715400
537.000000	22.969800
538.000000	23.218000
539.000000	23.465400
540.000000	23.702100
541.000000	23.932533
542.000000	24.156200
543.000000	24.382967
544.000000	24.595400
545.000000	24.792867
546.000000	24.988033
547.000000	25.178367
548.000000	25.341800
549.000000	25.505767
550.000000	25.655900
551.000000	25.801067
552.000000	25.943500
553.000000	26.075300
554.000000	26.206500
555.000000	26.321867
556.000000	26.437200
557.000000	26.528300
558.000000	26.612700
559.000000	26.689033
560.000000	26.743567
561.000000	26.812500
562.000000	26.877833
563.000000	26.940533
564.000000	26.991167
565.000000	27.045633
566.000000	27.083967
567.000000	27.121200
568.000000	27.145933
569.000000	27.182400
570.000000	27.209933
571.000000	27.223233
572.000000	27.238267
573.000000	27.235533
574.000000	27.231933
575.000000	27.243200
576.000000	27.239267
577.000000	27.220067
578.000000	27.187367
579.000000	27.165933
580.000000	27.143367
581.000000	27.113667
582.000000	27.066400
583.000000	27.025433
584.000000	26.977100
585.000000	26.927000
586.000000	26.872367
587.000000	26.806667
588.000000	26.738300
589.000000	26.667967
590.000000	26.595533
591.000000	26.516867
592.000000	26.435300
593.000000	26.341500
594.000000	26.253633
595.000000	26.179300
596.000000	26.079800
597.000000	25.975033
598.000000	25.867300
599.000000	25.763767
600.000000	25.655733
601.000000	25.546400
602.000000	25.427300
603.000000	25.296033
604.000000	25.175200
605.000000	25.054767
606.000000	24.925167
607.000000	24.789833
608.000000	24.664633
609.000000	24.548700
610.000000	24.427200
611.000000	24.294067
612.000000	24.159800
613.000000	24.026567
614.000000	23.884533
615.000000	23.741133
616.000000	23.609633
617.000000	23.481367
618.000000	23.353200
619.000000	23.238833
620.000000	23.125433
621.000000	23.009800
622.000000	22.895433
623.000000	22.786367
624.000000	22.681233
625.000000	22.584000
626.000000	22.490800
627.000000	22.406400
628.000000	22.332367
629.000000	22.267467
630.000000	22.201667
631.000000	22.151900
632.000000	22.130767
633.000000	22.098533
634.000000	22.075233
635.000000	22.069467
636.000000	22.070900
637.000000	22.087500
638.000000	22.101500
639.000000	22.131267
640.000000	22.165300
641.000000	22.199300
642.000000	22.273133
643.000000	22.345433
644.000000	22.416700
645.000000	22.513967
646.000000	22.610800
647.000000	22.706433
648.000000	22.809500
649.000000	22.921967
650.000000	23.036600
651.000000	23.162833
652.000000	23.292100
653.000000	23.419400
654.000000	23.574933
655.000000	23.738100
656.000000	23.893800
657.000000	24.052100
658.000000	24.231000
659.000000	24.414933
660.000000	24.597167
661.000000	24.793067
662.000000	24.974333
663.000000	25.171467
664.000000	25.383100
665.000000	25.585167
666.000000	25.790567
667.000000	26.005033
668.000000	26.211667
669.000000	26.440933
670.000000	26.681667
671.000000	26.929667
672.000000	27.183767
673.000000	27.451667
674.000000	27.732867
675.000000	27.990333
676.000000	28.256133
677.000000	28.521300
678.000000	28.800367
679.000000	29.078200
680.000000	29.342000
681.000000	29.603400
682.000000	29.897100
683.000000	30.164333
684.000000	30.426167
685.000000	30.723700
686.000000	30.997833
687.000000	31.252567
688.000000	31.537367
689.000000	31.832800
690.000000	32.117000
691.000000	32.384100
692.000000	32.654267
693.000000	32.945333
694.000000	33.204133
695.000000	33.449633
696.000000	33.697700
697.000000	33.973333
698.000000	34.210267
699.000000	34.441900
700.000000	34.698000
701.000000	34.958567
702.000000	35.208800
703.000000	35.433900
704.000000	35.675900
705.000000	35.885500
706.000000	36.091067
707.000000	36.335633
708.000000	36.552067
709.000000	36.738700
710.000000	36.963700
711.000000	37.163367
712.000000	37.345800
713.000000	37.552667
714.000000	37.750700
715.000000	37.935033
716.000000	38.111200
717.000000	38.276367
718.000000	38.479200
719.000000	38.646500
720.000000	38.793167
721.000000	38.960800
722.000000	39.180500
723.000000	39.340500
724.000000	39.507867
725.000000	39.675800
726.000000	39.824733
727.000000	39.960033
728.000000	40.126000
729.000000	40.288300
730.000000	40.455333
731.000000	40.553167
732.000000	40.695167
733.000000	40.832100
734.000000	40.984033
735.000000	41.077300
736.000000	41.203300
737.000000	41.350567
738.000000	41.460433
739.000000	41.575100
740.000000	41.708433
741.000000	41.827067
742.000000	41.935800
743.000000	42.051900
744.000000	42.184067
745.000000	42.288300
746.000000	42.385200
747.000000	42.519033
748.000000	42.604133
749.000000	42.661467
750.000000	42.784400
751.000000	42.915400
752.000000	43.028867
753.000000	43.104233
754.000000	43.166233
755.000000	43.222000
756.000000	43.332267
757.000000	43.440833
758.000000	43.486000
759.000000	43.593567
760.000000	43.689033
761.000000	43.763333
762.000000	43.855033
763.000000	43.946967
764.000000	44.026967
765.000000	44.126800
766.000000	44.159767
767.000000	44.287000
768.000000	44.357933
769.000000	44.398300
770.000000	44.438633
771.000000	44.473900
772.000000	44.555500
773.000000	44.615833
774.000000	44.711733
775.000000	44.716233
776.000000	44.873200
777.000000	44.812133
778.000000	44.939000
779.000000	44.973667
780.000000	45.152767
781.000000	45.131667
782.000000	45.165133
783.000000	45.244767
784.000000	45.249367
785.000000	45.343533
786.000000	45.287033
787.000000	45.305067
788.000000	45.437867
789.000000	45.491200
790.000000	45.539567
791.000000	45.511033
792.000000	45.543167
793.000000	45.558833
794.000000	45.563500
795.000000	45.560933
796.000000	45.601400
797.000000	45.645400
798.000000	45.679267
799.000000	45.702500
800.000000	45.763500
801.000000	45.808533
802.000000	45.794633
803.000000	45.760867
804.000000	45.816333
805.000000	45.778367
806.000000	45.765033
807.000000	45.754700
808.000000	45.864367
809.000000	45.855967
810.000000	45.747933
811.000000	45.757767
812.000000	45.877633
813.000000	45.716367
814.000000	45.734167
815.000000	45.738633
816.000000	45.844833
817.000000	45.707500
818.000000	45.720167
819.000000	45.735467
820.000000	45.738900
821.000000	45.595267
822.000000	45.666600
823.000000	45.588167
824.000000	45.571000
825.000000	45.442000
826.000000	45.566700
827.000000	45.484233
828.000000	45.340067
829.000000	45.339633
830.000000	45.368200
831.000000	45.114200
832.000000	45.194867
833.000000	45.091100
834.000000	45.149367
835.000000	45.093167
836.000000	44.942567
837.000000	44.931833
838.000000	44.850467
839.000000	44.813067
840.000000	44.778167
841.000000	44.544333
842.000000	44.558567
843.000000	44.478467
844.000000	44.483700
845.000000	44.135567
846.000000	44.211300
847.000000	43.954367
848.000000	43.854700
849.000000	43.649467
850.000000	43.747400
851.000000	43.539733
852.000000	43.110967
853.000000	43.222300
854.000000	43.217900
855.000000	43.263000
856.000000	42.955033
857.000000	42.322600
858.000000	42.846878
859.000000	42.797096
860.000000	42.743607
861.000000	42.685777
862.000000	42.623361
863.000000	42.584647
864.000000	42.551865
865.000000	42.488488
866.000000	42.446878
867.000000	42.394484
868.000000	42.351083
869.000000	42.307880
870.000000	42.257436
871.000000	42.215960
872.000000	42.193213
873.000000	42.250792
874.000000	42.374005
875.000000	42.514018
876.000000	42.638933
877.000000	42.742769
878.000000	42.841179
879.000000	42.921979
880.000000	42.985504
881.000000	43.050016
882.000000	43.093764
883.000000	43.143544
884.000000	43.179257
885.000000	43.230419
886.000000	43.258316
887.000000	43.294380
888.000000	43.322479
889.000000	43.352225
890.000000	43.375327
891.000000	43.377370
892.000000	43.398849
893.000000	43.407393
894.000000	43.416101
895.000000	43.444911
896.000000	43.452736
897.000000	43.452668
898.000000	43.449710
899.000000	43.464085
900.000000	43.481627
901.000000	43.486387
902.000000	43.488265
903.000000	43.511533
904.000000	43.536881
905.000000	43.558816
906.000000	43.588545
907.000000	43.634641
908.000000	43.679946
909.000000	43.743364
910.000000	43.813004
911.000000	43.871680
912.000000	43.921005
913.000000	44.003133
914.000000	44.080884
915.000000	44.163337
916.000000	44.248537
917.000000	44.319800
918.000000	44.378988
919.000000	44.451369
920.000000	44.518560
921.000000	44.596953
922.000000	44.665631
923.000000	44.730608
924.000000	44.803341
925.000000	44.875930
926.000000	44.951743
927.000000	45.022442
928.000000	45.093868
929.000000	45.164655
930.000000	45.245325
931.000000	45.319100
932.000000	45.388641
933.000000	45.458578
934.000000	45.517916
935.000000	45.587684
936.000000	45.665110
937.000000	45.731756
938.000000	45.804692
939.000000	45.875109
940.000000	45.950982
941.000000	46.029927
942.000000	46.100730
943.000000	46.163808
944.000000	46.228911
945.000000	46.290576
946.000000	46.347625
947.000000	46.410865
948.000000	46.464796
949.000000	46.514597
950.000000	46.573337
951.000000	46.623925
952.000000	46.672400
953.000000	46.720507
954.000000	46.759775
955.000000	46.800410
956.000000	46.841657
957.000000	46.886622
958.000000	46.936729
959.000000	46.979593
960.000000	47.014941
961.000000	47.041556
962.000000	47.079590
963.000000	47.128424
964.000000	47.168355
965.000000	47.213974
966.000000	47.264957
967.000000	47.307875
968.000000	47.363679
969.000000	47.427476
970.000000	47.468102
971.000000	47.516185
972.000000	47.578320
973.000000	47.634940
974.000000	47.681797
975.000000	47.730695
976.000000	47.785087
977.000000	47.843054
978.000000	47.900834
979.000000	47.946388
980.000000	48.001563
981.000000	48.052880
982.000000	48.097014
983.000000	48.151817
984.000000	48.209943
985.000000	48.260320
986.000000	48.320131
987.000000	48.382934
988.000000	48.437925
989.000000	48.494595
990.000000	48.550504
991.000000	48.616262
992.000000	48.677663
993.000000	48.741079
994.000000	48.805638
995.000000	48.872829
996.000000	48.940607
997.000000	49.015229
998.000000	49.077264
999.000000	49.140851
1000.000000	49.214985
1001.000000	49.287606
1002.000000	49.356326
1003.000000	49.426071
1004.000000	49.492167
1005.000000	49.558371
1006.000000	49.610777
1007.000000	49.682454
1008.000000	49.753239
1009.000000	49.824770
1010.000000	49.892574
1011.000000	49.968480
1012.000000	50.050062
1013.000000	50.124069
1014.000000	50.218789
1015.000000	50.325917
1016.000000	50.424232
1017.000000	50.536909
1018.000000	50.644748
1019.000000	50.762949
1020.000000	50.879428
1021.000000	51.008964
1022.000000	51.116703
1023.000000	51.240593
1024.000000	51.361192
1025.000000	51.485277
1026.000000	51.597915
1027.000000	51.728172
1028.000000	51.842209
1029.000000	51.949144
1030.000000	52.065592
1031.000000	52.177484
1032.000000	52.288444
1033.000000	52.400757
1034.000000	52.505206
1035.000000	52.603881
1036.000000	52.709452
1037.000000	52.814672
1038.000000	52.914907
1039.000000	53.011553
1040.000000	53.099536
1041.000000	53.197152
1042.000000	53.297058
1043.000000	53.392817
1044.000000	53.491312
1045.000000	53.586575
1046.000000	53.684815
1047.000000	53.775901
1048.000000	53.877812
1049.000000	53.965398
1050.000000	54.064384
1051.000000	54.172914
1052.000000	54.293358
1053.000000	54.393341
1054.000000	54.505456
1055.000000	54.610009
1056.000000	54.715386
1057.000000	54.826576
1058.000000	54.933542
1059.000000	55.037697
1060.000000	55.149083
1061.000000	55.256904
1062.000000	55.355045
1063.000000	55.455051
1064.000000	55.559160
1065.000000	55.663579
1066.000000	55.757014
1067.000000	55.851967
1068.000000	55.935316
1069.000000	56.035516
1070.000000	56.136813
1071.000000	56.225883
1072.000000	56.322836
1073.000000	56.412127
1074.000000	56.494742
1075.000000	56.591849
1076.000000	56.678505
1077.000000	56.758220
1078.000000	56.847152
1079.000000	56.928619
1080.000000	57.013903
1081.000000	57.099565
1082.000000	57.193640
1083.000000	57.270267
1084.000000	57.354511
1085.000000	57.437060
1086.000000	57.514012
1087.000000	57.588930
1088.000000	57.669743
1089.000000	57.744518
1090.000000	57.811730
1091.000000	57.874177
1092.000000	57.939278
1093.000000	58.025173
1094.000000	58.068817
1095.000000	58.123860
1096.000000	58.182758
1097.000000	58.234059
1098.000000	58.270726
1099.000000	58.312922
1100.000000	58.362714
1101.000000	58.407553
1102.000000	58.435509
1103.000000	58.464716
1104.000000	58.492961
1105.000000	58.531282
1106.000000	58.564700
1107.000000	58.581330
1108.000000	58.616414
1109.000000	58.650259
1110.000000	58.672715
1111.000000	58.698614
1112.000000	58.731186
1113.000000	58.759067
1114.000000	58.788756
1115.000000	58.812890
1116.000000	58.831572
1117.000000	58.843973
1118.000000	58.830800
1119.000000	58.820224
1120.000000	58.800734
1121.000000	58.771319
1122.000000	58.721752
1123.000000	58.656916
1124.000000	58.568527
1125.000000	58.473149
1126.000000	58.343356
1127.000000	58.189017
1128.000000	58.003417
1129.000000	57.765569
1130.000000	57.494146
1131.000000	57.182169
1132.000000	56.837480
1133.000000	56.478765
1134.000000	56.070696
1135.000000	55.588047
1136.000000	55.133900
1137.000000	54.689466
1138.000000	54.260973
1139.000000	53.854412
1140.000000	53.466928
1141.000000	53.083018
1142.000000	52.711853
1143.000000	52.363319
1144.000000	52.066796
1145.000000	51.789098
1146.000000	51.571521
1147.000000	51.405923
1148.000000	51.275488
1149.000000	51.152816
1150.000000	51.029297
1151.000000	50.906054
1152.000000	50.767461
1153.000000	50.582915
1154.000000	50.359981
1155.000000	50.096452
1156.000000	49.802038
1157.000000	49.477117
1158.000000	49.118447
1159.000000	48.747791
1160.000000	48.366656
1161.000000	47.987775
1162.000000	47.595099
1163.000000	47.202016
1164.000000	46.828058
1165.000000	46.469538
1166.000000	46.116638
1167.000000	45.783517
1168.000000	45.445771
1169.000000	45.139413
1170.000000	44.832707
1171.000000	44.528984
1172.000000	44.224241
1173.000000	43.938298
1174.000000	43.637372
1175.000000	43.336064
1176.000000	43.009260
1177.000000	42.638168
1178.000000	42.225099
1179.000000	41.788441
1180.000000	41.313763
1181.000000	40.863236
1182.000000	40.458552
1183.000000	40.131608
1184.000000	39.901260
1185.000000	39.794719
1186.000000	39.810585
1187.000000	39.926988
1188.000000	40.144924
1189.000000	40.453738
1190.000000	40.815458
1191.000000	41.185046
1192.000000	41.545907
1193.000000	41.881468
1194.000000	42.173922
1195.000000	42.409998
1196.000000	42.585730
1197.000000	42.728387
1198.000000	42.848479
1199.000000	42.946051
1200.000000	43.021653
1201.000000	43.079884
1202.000000	43.137059
1203.000000	43.192990
1204.000000	43.251011
1205.000000	43.324161
1206.000000	43.410519
1207.000000	43.514986
1208.000000	43.641518
1209.000000	43.779945
1210.000000	43.924181
1211.000000	44.080953
1212.000000	44.247008
1213.000000	44.415661
1214.000000	44.591927
1215.000000	44.781730
1216.000000	44.979750
1217.000000	45.189817
1218.000000	45.412183
1219.000000	45.638988
1220.000000	45.871345
1221.000000	46.115178
1222.000000	46.361452
1223.000000	46.600792
1224.000000	46.840344
1225.000000	47.078279
1226.000000	47.310532
1227.000000	47.537304
1228.000000	47.756013
1229.000000	47.970478
1230.000000	48.184015
1231.000000	48.385993
1232.000000	48.579599
1233.000000	48.767952
1234.000000	48.953361
1235.000000	49.134679
1236.000000	49.313353
1237.000000	49.483325
1238.000000	49.633431
1239.000000	49.792614
1240.000000	49.954630
1241.000000	50.108236
1242.000000	50.270139
1243.000000	50.413364
1244.000000	50.550872
1245.000000	50.699806
1246.000000	50.833631
1247.000000	50.953037
1248.000000	51.068912
1249.000000	51.185591
1250.000000	51.287203
1251.000000	51.385653
1252.000000	51.488594
1253.000000	51.578888
1254.000000	51.656302
1255.000000	51.745948
1256.000000	51.827547
1257.000000	51.891064
1258.000000	51.957859
1259.000000	52.014156
1260.000000	52.070491
1261.000000	52.121037
1262.000000	52.166511
1263.000000	52.219076
1264.000000	52.269972
1265.000000	52.310371
1266.000000	52.345159
1267.000000	52.387752
1268.000000	52.424740
1269.000000	52.459051
1270.000000	52.488530
1271.000000	52.520651
1272.000000	52.551227
1273.000000	52.584882
1274.000000	52.622217
1275.000000	52.661364
1276.000000	52.703868
1277.000000	52.749967
1278.000000	52.806074
1279.000000	52.857129
1280.000000	52.915454
1281.000000	52.967668
1282.000000	53.024937
1283.000000	53.089116
1284.000000	53.143542
1285.000000	53.205819
1286.000000	53.244490
1287.000000	53.285817
1288.000000	53.320913
1289.000000	53.342903
1290.000000	53.363921
1291.000000	53.388970
1292.000000	53.396706
1293.000000	53.390367
1294.000000	53.385884
1295.000000	53.375154
1296.000000	53.362171
1297.000000	53.341782
1298.000000	53.318424
1299.000000	53.292183
1300.000000	53.264318
1301.000000	53.223322
1302.000000	53.180757
1303.000000	53.132689
1304.000000	53.075312
1305.000000	53.011965
1306.000000	52.933400
1307.000000	52.855314
1308.000000	52.762870
1309.000000	52.673582
1310.000000	52.567547
1311.000000	52.458246
1312.000000	52.347299
1313.000000	52.212382
1314.000000	52.074230
1315.000000	51.936922
1316.000000	51.785344
1317.000000	51.642311
1318.000000	51.483152
1319.000000	51.310919
1320.000000	51.140645
1321.000000	50.964605
1322.000000	50.793867
1323.000000	50.595698
1324.000000	50.393934
1325.000000	50.190132
1326.000000	49.973615
1327.000000	49.743268
1328.000000	49.516476
1329.000000	49.284827
1330.000000	49.020605
1331.000000	48.749667
1332.000000	48.474471
1333.000000	48.193854
1334.000000	47.914021
1335.000000	47.622816
1336.000000	47.315166
1337.000000	47.017922
1338.000000	46.709090
1339.000000	46.388993
1340.000000	46.060692
1341.000000	45.716781
1342.000000	45.381052
1343.000000	45.051646
1344.000000	44.701621
1345.000000	44.310419
1346.000000	43.966965
1347.000000	43.587557
1348.000000	43.158591
1349.000000	42.747544
1350.000000	42.302858
1351.000000	41.820074
1352.000000	41.312624
1353.000000	40.873985
1354.000000	40.464958
1355.000000	40.069556
1356.000000	39.790221
1357.000000	39.586669
1358.000000	39.438039
1359.000000	39.306799
1360.000000	39.228570
1361.000000	39.061706
1362.000000	38.851971
1363.000000	38.651979
1364.000000	38.442428
1365.000000	38.205630
1366.000000	37.971487
1367.000000	37.713325
1368.000000	37.388484
1369.000000	37.062610
1370.000000	36.725474
1371.000000	36.346933
1372.000000	35.964759
1373.000000	35.622311
1374.000000	35.307794
1375.000000	35.051987
1376.000000	34.818720
1377.000000	34.586988
1378.000000	34.374882
1379.000000	34.116639
1380.000000	33.782034
1381.000000	33.425077
1382.000000	32.889648
1383.000000	32.340776
1384.000000	31.769177
1385.000000	31.216349
1386.000000	30.712777
1387.000000	30.222097
1388.000000	29.720878
1389.000000	29.255680
1390.000000	28.900176
1391.000000	28.542635
1392.000000	28.177401
1393.000000	27.847227
1394.000000	27.559066
1395.000000	27.219788
1396.000000	26.830907
1397.000000	26.454085
1398.000000	26.152461
1399.000000	25.839195
1400.000000	25.456060
1401.000000	25.006861
1402.000000	24.591778
1403.000000	24.232182
1404.000000	23.845805
1405.000000	23.460426
1406.000000	23.070686
1407.000000	22.722345
1408.000000	22.375967
1409.000000	22.023027
1410.000000	21.689092
1411.000000	21.395462
1412.000000	21.132532
1413.000000	20.899983
1414.000000	20.659131
1415.000000	20.404540
1416.000000	20.152160
1417.000000	19.959455
1418.000000	19.772528
1419.000000	19.559239
1420.000000	19.344866
1421.000000	19.160577
1422.000000	18.985593
1423.000000	18.821849
1424.000000	18.639657
1425.000000	18.469506
1426.000000	18.313429
1427.000000	18.178726
1428.000000	18.045669
1429.000000	17.926425
1430.000000	17.799471
1431.000000	17.698916
1432.000000	17.598356
1433.000000	17.490781
1434.000000	17.379904
1435.000000	17.281271
1436.000000	17.208944
1437.000000	17.123252
1438.000000	17.028465
1439.000000	16.944699
1440.000000	16.862378
1441.000000	16.791595
1442.000000	16.712382
1443.000000	16.632951
1444.000000	16.567181
1445.000000	16.493111
1446.000000	16.424651
1447.000000	16.360606
1448.000000	16.287405
1449.000000	16.228074
1450.000000	16.167812
1451.000000	16.121996
1452.000000	16.064432
1453.000000	16.009254
1454.000000	15.944119
1455.000000	15.896536
1456.000000	15.846295
1457.000000	15.794060
1458.000000	15.752453
1459.000000	15.717890
1460.000000	15.679402
1461.000000	15.633833
1462.000000	15.617806
1463.000000	15.603577
1464.000000	15.577025
1465.000000	15.570703
1466.000000	15.546026
1467.000000	15.531518
1468.000000	15.525505
1469.000000	15.506333
1470.000000	15.497528
1471.000000	15.499126
1472.000000	15.493445
1473.000000	15.471117
1474.000000	15.459070
1475.000000	15.457228
1476.000000	15.462264
1477.000000	15.468561
1478.000000	15.470095
1479.000000	15.476784
1480.000000	15.475843
1481.000000	15.479345
1482.000000	15.485116
1483.000000	15.498148
1484.000000	15.503604
1485.000000	15.522614
1486.000000	15.541451
1487.000000	15.552193
1488.000000	15.565864
1489.000000	15.578768
1490.000000	15.601329
1491.000000	15.618673
1492.000000	15.629361
1493.000000	15.649659
1494.000000	15.670021
1495.000000	15.693403
1496.000000	15.730455
1497.000000	15.754669
1498.000000	15.775505
1499.000000	15.816577
1500.000000	15.858639
1501.000000	15.892343
1502.000000	15.924682
1503.000000	15.963718
1504.000000	16.002539
1505.000000	16.043553
1506.000000	16.089923
1507.000000	16.133357
1508.000000	16.170521
1509.000000	16.211063
1510.000000	16.253629
1511.000000	16.293543
1512.000000	16.331766
1513.000000	16.370590
1514.000000	16.408936
1515.000000	16.447214
1516.000000	16.490124
1517.000000	16.532414
1518.000000	16.566070
1519.000000	16.605263
1520.000000	16.647863
1521.000000	16.683227
1522.000000	16.712850
1523.000000	16.744323
1524.000000	16.777226
1525.000000	16.813157
1526.000000	16.851419
1527.000000	16.886088
1528.000000	16.915985
1529.000000	16.947757
1530.000000	16.980354
1531.000000	17.003002
1532.000000	17.023925
1533.000000	17.052813
1534.000000	17.076876
1535.000000	17.097256
1536.000000	17.122148
1537.000000	17.137733
1538.000000	17.154703
1539.000000	17.189619
1540.000000	17.209194
1541.000000	17.217411
1542.000000	17.237723
1543.000000	17.251442
1544.000000	17.277933
1545.000000	17.310546
1546.000000	17.333490
1547.000000	17.358458
1548.000000	17.389751
1549.000000	17.409119
1550.000000	17.445292
1551.000000	17.480719
1552.000000	17.506096
1553.000000	17.531515
1554.000000	17.551434
1555.000000	17.570546
1556.000000	17.588356
1557.000000	17.603680
1558.000000	17.616348
1559.000000	17.625101
1560.000000	17.629901
1561.000000	17.625043
1562.000000	17.626906
1563.000000	17.634512
1564.000000	17.635228
1565.000000	17.620931
1566.000000	17.624009
1567.000000	17.618891
1568.000000	17.612102
1569.000000	17.612973
1570.000000	17.617053
1571.000000	17.610238
1572.000000	17.617291
1573.000000	17.625662
1574.000000	17.631915
1575.000000	17.645631
1576.000000	17.666343
1577.000000	17.698349
1578.000000	17.704839
1579.000000	17.720880
1580.000000	17.759628
1581.000000	17.780442
1582.000000	17.809560
1583.000000	17.845712
1584.000000	17.880416
1585.000000	17.912650
1586.000000	17.957488
1587.000000	18.002258
1588.000000	18.038203
1589.000000	18.080489
1590.000000	18.135605
1591.000000	18.182417
1592.000000	18.217783
1593.000000	18.272954
1594.000000	18.318245
1595.000000	18.371351
1596.000000	18.430936
1597.000000	18.491147
1598.000000	18.534318
1599.000000	18.599327
1600.000000	18.654517
1601.000000	18.711715
1602.000000	18.771456
1603.000000	18.836182
1604.000000	18.891119
1605.000000	18.944424
1606.000000	19.015059
1607.000000	19.063094
1608.000000	19.128302
1609.000000	19.181984
1610.000000	19.221715
1611.000000	19.287985
1612.000000	19.346415
1613.000000	19.399006
1614.000000	19.456003
1615.000000	19.508266
1616.000000	19.563709
1617.000000	19.628621
1618.000000	19.680931
1619.000000	19.731733
1620.000000	19.786668
1621.000000	19.843732
1622.000000	19.908470
1623.000000	19.972693
1624.000000	20.029032
1625.000000	20.091598
1626.000000	20.170042
1627.000000	20.222404
1628.000000	20.281906
1629.000000	20.343409
1630.000000	20.407687
1631.000000	20.466045
1632.000000	20.530418
1633.000000	20.592258
1634.000000	20.646206
1635.000000	20.698870
1636.000000	20.748036
1637.000000	20.789998
1638.000000	20.844501
1639.000000	20.891009
1640.000000	20.938728
1641.000000	20.969960
1642.000000	21.006324
1643.000000	21.057689
1644.000000	21.101205
1645.000000	21.128586
1646.000000	21.164922
1647.000000	21.191825
1648.000000	21.220933
1649.000000	21.248848
1650.000000	21.274140
1651.000000	21.290513
1652.000000	21.295774
1653.000000	21.306332
1654.000000	21.298443
1655.000000	21.292833
1656.000000	21.270399
1657.000000	21.247370
1658.000000	21.209183
1659.000000	21.146479
1660.000000	21.106061
1661.000000	21.043265
1662.000000	20.974087
1663.000000	20.899742
1664.000000	20.806760
1665.000000	20.729375
1666.000000	20.629424
1667.000000	20.538213
1668.000000	20.400095
1669.000000	20.246172
1670.000000	20.069805
1671.000000	19.914253
1672.000000	19.704744
1673.000000	19.490075
1674.000000	19.222814
1675.000000	18.917577
1676.000000	18.613598
1677.000000	18.273564
1678.000000	17.899571
1679.000000	17.533165
1680.000000	17.192503
1681.000000	16.885360
1682.000000	16.649437
1683.000000	16.478471
1684.000000	16.360384
1685.000000	16.278355
1686.000000	16.221119
1687.000000	16.175829
1688.000000	16.108019
1689.000000	16.022271
1690.000000	15.925038
1691.000000	15.816258
1692.000000	15.729672
1693.000000	15.667436
1694.000000	15.634538
1695.000000	15.625915
1696.000000	15.656258
1697.000000	15.702365
1698.000000	15.756260
1699.000000	15.826522
1700.000000	15.896581
1701.000000	15.970382
1702.000000	16.026625
1703.000000	16.060654
1704.000000	16.087744
1705.000000	16.116393
1706.000000	16.123552
1707.000000	16.124562
1708.000000	16.130110
1709.000000	16.111867
1710.000000	16.083965
1711.000000	16.048503
1712.000000	15.983105
1713.000000	15.913764
1714.000000	15.863586
1715.000000	15.797466
1716.000000	15.728798
1717.000000	15.672390
1718.000000	15.619458
1719.000000	15.579167
1720.000000	15.538932
1721.000000	15.516757
1722.000000	15.475346
1723.000000	15.436969
1724.000000	15.398923
1725.000000	15.358762
1726.000000	15.318143
1727.000000	15.266215
1728.000000	15.210815
1729.000000	15.153298
1730.000000	15.115352
1731.000000	15.100098
1732.000000	15.093231
1733.000000	15.105945
1734.000000	15.148930
1735.000000	15.207298
1736.000000	15.291262
1737.000000	15.403181
1738.000000	15.525744
1739.000000	15.647511
1740.000000	15.780134
1741.000000	15.898584
1742.000000	16.017131
1743.000000	16.119255
1744.000000	16.207856
1745.000000	16.279077
1746.000000	16.332200
1747.000000	16.377355
1748.000000	16.413843
1749.000000	16.447642
1750.000000	16.468295
1751.000000	16.475550
1752.000000	16.468392
1753.000000	16.458002
1754.000000	16.439145
1755.000000	16.411015
1756.000000	16.377647
1757.000000	16.341606
1758.000000	16.296406
1759.000000	16.261368
1760.000000	16.231367
1761.000000	16.209958
1762.000000	16.206425
1763.000000	16.220138
1764.000000	16.248307
1765.000000	16.297060
1766.000000	16.356718
1767.000000	16.416095
1768.000000	16.495898
1769.000000	16.569096
1770.000000	16.648069
1771.000000	16.737319
1772.000000	16.820578
1773.000000	16.894311
1774.000000	16.973016
1775.000000	17.045905
1776.000000	17.106859
1777.000000	17.167106
1778.000000	17.233456
1779.000000	17.291067
1780.000000	17.344037
1781.000000	17.386107
1782.000000	17.437084
1783.000000	17.489157
1784.000000	17.532265
1785.000000	17.584213
1786.000000	17.623727
1787.000000	17.653115
1788.000000	17.692905
1789.000000	17.729572
1790.000000	17.763858
1791.000000	17.805447
1792.000000	17.841302
1793.000000	17.877294
1794.000000	17.914101
1795.000000	17.954692
1796.000000	17.993032
1797.000000	18.021552
1798.000000	18.050123
1799.000000	18.092300
1800.000000	18.145417
1801.000000	18.183919
1802.000000	18.213010
1803.000000	18.245794
1804.000000	18.278457
1805.000000	18.313149
1806.000000	18.358419
1807.000000	18.389429
1808.000000	18.416790
1809.000000	18.451968
1810.000000	18.481876
1811.000000	18.506046
1812.000000	18.527480
1813.000000	18.543761
1814.000000	18.559531
1815.000000	18.567137
1816.000000	18.581735
1817.000000	18.595540
1818.000000	18.615868
1819.000000	18.644964
1820.000000	18.679673
1821.000000	18.713631
1822.000000	18.710979
1823.000000	18.722287
1824.000000	18.754157
1825.000000	18.787153
1826.000000	18.835769
1827.000000	18.887648
1828.000000	18.941556
1829.000000	18.987999
1830.000000	19.036178
1831.000000	19.083588
1832.000000	19.121431
1833.000000	19.162424
1834.000000	19.213233
1835.000000	19.270633
1836.000000	19.308776
1837.000000	19.340777
1838.000000	19.365373
1839.000000	19.380363
1840.000000	19.415518
1841.000000	19.437057
1842.000000	19.429135
1843.000000	19.419655
1844.000000	19.427091
1845.000000	19.448950
1846.000000	19.493773
1847.000000	19.531567
1848.000000	19.545446
1849.000000	19.534548
1850.000000	19.508221
1851.000000	19.494878
1852.000000	19.486616
1853.000000	19.490807
1854.000000	19.460759
1855.000000	19.411468
1856.000000	19.376886
1857.000000	19.333593
1858.000000	19.276889
1859.000000	19.202145
1860.000000	19.102970
1861.000000	18.995687
1862.000000	18.884955
1863.000000	18.763834
1864.000000	18.644356
1865.000000	18.531236
1866.000000	18.411562
1867.000000	18.265466
1868.000000	18.095848
1869.000000	17.881436
1870.000000	17.666069
1871.000000	17.415087
1872.000000	17.156717
1873.000000	16.878728
1874.000000	16.585453
1875.000000	16.270860
1876.000000	15.976645
1877.000000	15.664820
1878.000000	15.322784
1879.000000	15.013135
1880.000000	14.711083
1881.000000	14.378943
1882.000000	14.047067
1883.000000	13.714867
1884.000000	13.391570
1885.000000	13.072856
1886.000000	12.806855
1887.000000	12.558120
1888.000000	12.318680
1889.000000	12.067770
1890.000000	11.851472
1891.000000	11.625279
1892.000000	11.394604
1893.000000	11.183712
1894.000000	11.006535
1895.000000	10.829799
1896.000000	10.679019
1897.000000	10.505695
1898.000000	10.337202
1899.000000	10.183317
1900.000000	10.033542
1901.000000	9.872554
1902.000000	9.751532
1903.000000	9.610162
1904.000000	9.494362
1905.000000	9.366945
1906.000000	9.245951
1907.000000	9.120007
1908.000000	9.025813
1909.000000	8.928633
1910.000000	8.832379
1911.000000	8.749950
1912.000000	8.676199
1913.000000	8.583461
1914.000000	8.486731
1915.000000	8.443143
1916.000000	8.360805
1917.000000	8.305195
1918.000000	8.237033
1919.000000	8.173811
1920.000000	8.126211
1921.000000	8.063656
1922.000000	8.027427
1923.000000	7.967555
1924.000000	7.936322
1925.000000	7.889919
1926.000000	7.844095
1927.000000	7.834838
1928.000000	7.786888
1929.000000	7.783476
1930.000000	7.754836
1931.000000	7.736297
1932.000000	7.709903
1933.000000	7.694366
1934.000000	7.695726
1935.000000	7.686135
1936.000000	7.681807
1937.000000	7.690968
1938.000000	7.682060
1939.000000	7.684352
1940.000000	7.691732
1941.000000	7.722016
1942.000000	7.720918
1943.000000	7.719949
1944.000000	7.737848
1945.000000	7.752540
1946.000000	7.768368
1947.000000	7.789624
1948.000000	7.800893
1949.000000	7.824974
1950.000000	7.851269
1951.000000	7.886649
1952.000000	7.903973
1953.000000	7.922004
1954.000000	7.969229
1955.000000	7.980830
1956.000000	8.008271
1957.000000	8.031661
1958.000000	8.039113
1959.000000	8.082123
1960.000000	8.101020
1961.000000	8.126603
1962.000000	8.169686
1963.000000	8.186902
1964.000000	8.215827
1965.000000	8.252822
1966.000000	8.280785
1967.000000	8.316701
1968.000000	8.345975
1969.000000	8.365064
1970.000000	8.400027
1971.000000	8.432827
1972.000000	8.461222
1973.000000	8.497640
1974.000000	8.517563
1975.000000	8.551686
1976.000000	8.591784
1977.000000	8.623331
1978.000000	8.661848
1979.000000	8.690198
1980.000000	8.725601
1981.000000	8.758056
1982.000000	8.801525
1983.000000	8.830965
1984.000000	8.865667
1985.000000	8.912584
1986.000000	8.945822
1987.000000	8.974590
1988.000000	9.001860
1989.000000	9.035069
1990.000000	9.068795
1991.000000	9.103641
1992.000000	9.134426
1993.000000	9.169437
1994.000000	9.195338
1995.000000	9.220435
1996.000000	9.244291
1997.000000	9.267303
1998.000000	9.302285
1999.000000	9.324668
2000.000000	9.350032
2001.000000	9.370662
2002.000000	9.394042
2003.000000	9.405684
2004.000000	9.420450
2005.000000	9.433562
2006.000000	9.444664
2007.000000	9.460656
2008.000000	9.470288
2009.000000	9.484080
2010.000000	9.479242
2011.000000	9.486107
2012.000000	9.505329
2013.000000	9.501490
2014.000000	9.491926
2015.000000	9.500215
2016.000000	9.492263
2017.000000	9.481162
2018.000000	9.476130
2019.000000	9.464505
2020.000000	9.465070
2021.000000	9.445760
2022.000000	9.430976
2023.000000	9.417558
2024.000000	9.398843
2025.000000	9.385510
2026.000000	9.374137
2027.000000	9.349617
2028.000000	9.322542
2029.000000	9.290421
2030.000000	9.272395
2031.000000	9.254876
2032.000000	9.223174
2033.000000	9.194807
2034.000000	9.164885
2035.000000	9.137375
2036.000000	9.095651
2037.000000	9.056553
2038.000000	9.017130
2039.000000	8.980164
2040.000000	8.942260
2041.000000	8.897095
2042.000000	8.844517
2043.000000	8.805405
2044.000000	8.752197
2045.000000	8.708254
2046.000000	8.667278
2047.000000	8.626629
2048.000000	8.596984
2049.000000	8.568545
2050.000000	8.539951
2051.000000	8.514541
2052.000000	8.494878
2053.000000	8.484648
2054.000000	8.477074
2055.000000	8.472595
2056.000000	8.479122
2057.000000	8.474705
2058.000000	8.481576
2059.000000	8.500011
2060.000000	8.506409
2061.000000	8.518112
2062.000000	8.541925
2063.000000	8.574254
2064.000000	8.596295
2065.000000	8.618877
2066.000000	8.642013
2067.000000	8.670279
2068.000000	8.700587
2069.000000	8.711376
2070.000000	8.732728
2071.000000	8.763201
2072.000000	8.790334
2073.000000	8.814685
2074.000000	8.827425
2075.000000	8.849509
2076.000000	8.866880
2077.000000	8.883504
2078.000000	8.904514
2079.000000	8.924145
2080.000000	8.934029
2081.000000	8.940305
2082.000000	8.952747
2083.000000	8.963197
2084.000000	8.979856
2085.000000	8.990906
2086.000000	8.993481
2087.000000	8.996098
2088.000000	9.011829
2089.000000	9.026922
2090.000000	9.030207
2091.000000	9.028442
2092.000000	9.033845
2093.000000	9.035907
2094.000000	9.042423
2095.000000	9.053794
2096.000000	9.055232
2097.000000	9.055039
2098.000000	9.058607
2099.000000	9.073733
2100.000000	9.084304
2101.000000	9.092039
2102.000000	9.102025
2103.000000	9.117724
2104.000000	9.122592
2105.000000	9.129750
2106.000000	9.138488
2107.000000	9.148872
2108.000000	9.160162
2109.000000	9.171895
2110.000000	9.167677
2111.000000	9.178143
2112.000000	9.202642
2113.000000	9.200008
2114.000000	9.205324
2115.000000	9.213282
2116.000000	9.213436
2117.000000	9.219325
2118.000000	9.235693
2119.000000	9.224649
2120.000000	9.223496
2121.000000	9.235225
2122.000000	9.236769
2123.000000	9.228788
2124.000000	9.234336
2125.000000	9.229396
2126.000000	9.221782
2127.000000	9.217650
2128.000000	9.207019
2129.000000	9.198819
2130.000000	9.191315
2131.000000	9.175230
2132.000000	9.170254
2133.000000	9.156019
2134.000000	9.140904
2135.000000	9.122285
2136.000000	9.104745
2137.000000	9.090593
2138.000000	9.074822
2139.000000	9.057870
2140.000000	9.042165
2141.000000	9.016181
2142.000000	8.991953
2143.000000	8.969889
2144.000000	8.951714
2145.000000	8.933199
2146.000000	8.916628
2147.000000	8.891026
2148.000000	8.860578
2149.000000	8.825993
2150.000000	8.806334
2151.000000	8.790259
2152.000000	8.751266
2153.000000	8.727985
2154.000000	8.723037
2155.000000	8.698199
2156.000000	8.677394
2157.000000	8.651708
2158.000000	8.637866
2159.000000	8.615406
2160.000000	8.602338
2161.000000	8.586960
2162.000000	8.570801
2163.000000	8.556571
2164.000000	8.545542
2165.000000	8.537799
2166.000000	8.532889
2167.000000	8.519733
2168.000000	8.514790
2169.000000	8.507795
2170.000000	8.508940
2171.000000	8.506975
2172.000000	8.492720
2173.000000	8.504561
2174.000000	8.511842
2175.000000	8.495779
2176.000000	8.504208
2177.000000	8.504468
2178.000000	8.507466
2179.000000	8.519495
2180.000000	8.517502
2181.000000	8.536621
2182.000000	8.526461
2183.000000	8.534869
2184.000000	8.533911
2185.000000	8.542859
2186.000000	8.558381
2187.000000	8.571731
2188.000000	8.571299
2189.000000	8.570885
2190.000000	8.588595
2191.000000	8.595961
2192.000000	8.591997
2193.000000	8.597122
2194.000000	8.602052
2195.000000	8.607111
2196.000000	8.614261
2197.000000	8.622189
2198.000000	8.622124
2199.000000	8.625466
2200.000000	8.640070
2201.000000	8.653089
2202.000000	8.646808
2203.000000	8.642630
2204.000000	8.666153
2205.000000	8.670019
2206.000000	8.677323
2207.000000	8.690036
2208.000000	8.702468
2209.000000	8.719631
2210.000000	8.722704
2211.000000	8.732538
2212.000000	8.751261
2213.000000	8.762563
2214.000000	8.795582
2215.000000	8.797491
2216.000000	8.802537
2217.000000	8.832507
2218.000000	8.846906
2219.000000	8.865834
2220.000000	8.884657
2221.000000	8.895914
2222.000000	8.901890
2223.000000	8.911026
2224.000000	8.916185
2225.000000	8.926003
2226.000000	8.925581
2227.000000	8.939882
2228.000000	8.939861
2229.000000	8.926398
2230.000000	8.912716
2231.000000	8.892237
2232.000000	8.887435
2233.000000	8.874391
2234.000000	8.844371
2235.000000	8.816204
2236.000000	8.790544
2237.000000	8.753574
2238.000000	8.715499
2239.000000	8.672357
2240.000000	8.636706
2241.000000	8.572274
2242.000000	8.528051
2243.000000	8.468211
2244.000000	8.418406
2245.000000	8.342989
2246.000000	8.282513
2247.000000	8.227271
2248.000000	8.133872
2249.000000	8.054193
2250.000000	7.977247
2251.000000	7.897731
2252.000000	7.807571
2253.000000	7.703606
2254.000000	7.612255
2255.000000	7.513169
2256.000000	7.430080
2257.000000	7.338668
2258.000000	7.251528
2259.000000	7.166208
2260.000000	7.097478
2261.000000	7.021256
2262.000000	6.947890
2263.000000	6.885136
2264.000000	6.841548
2265.000000	6.797210
2266.000000	6.750874
2267.000000	6.735901
2268.000000	6.702939
2269.000000	6.697044
2270.000000	6.687586
2271.000000	6.677946
2272.000000	6.674785
2273.000000	6.674913
2274.000000	6.682005
2275.000000	6.680042
2276.000000	6.710053
2277.000000	6.715518
2278.000000	6.723662
2279.000000	6.744864
2280.000000	6.749517
2281.000000	6.774067
2282.000000	6.779665
2283.000000	6.786858
2284.000000	6.798917
2285.000000	6.807666
2286.000000	6.801556
2287.000000	6.803006
2288.000000	6.794508
2289.000000	6.794277
2290.000000	6.775849
2291.000000	6.763188
2292.000000	6.746407
2293.000000	6.721325
2294.000000	6.702265
2295.000000	6.684824
2296.000000	6.647929
2297.000000	6.610179
2298.000000	6.612779
2299.000000	6.580900
2300.000000	6.547873
2301.000000	6.527628
2302.000000	6.511942
2303.000000	6.501000
2304.000000	6.493085
2305.000000	6.498714
2306.000000	6.504133
2307.000000	6.511915
2308.000000	6.515814
2309.000000	6.543650
2310.000000	6.573392
2311.000000	6.599214
2312.000000	6.628957
2313.000000	6.659127
2314.000000	6.685156
2315.000000	6.722079
2316.000000	6.759186
2317.000000	6.791389
2318.000000	6.832733
2319.000000	6.860018
2320.000000	6.891074
2321.000000	6.922430
2322.000000	6.954297
2323.000000	6.974190
2324.000000	6.988699
2325.000000	7.014413
2326.000000	7.031937
2327.000000	7.048294
2328.000000	7.067867
2329.000000	7.076191
2330.000000	7.085303
2331.000000	7.096346
2332.000000	7.109668
2333.000000	7.109017
2334.000000	7.114566
2335.000000	7.116815
2336.000000	7.117408
2337.000000	7.115572
2338.000000	7.108874
2339.000000	7.105987
2340.000000	7.093600
2341.000000	7.075558
2342.000000	7.067304
2343.000000	7.069534
2344.000000	7.051914
2345.000000	7.030621
2346.000000	7.016068
2347.000000	7.005050
2348.000000	6.998379
2349.000000	6.996269
2350.000000	6.997393
2351.000000	6.989105
2352.000000	6.988500
2353.000000	6.992797
2354.000000	7.002487
2355.000000	7.011153
2356.000000	7.020059
2357.000000	7.022373
2358.000000	7.031528
2359.000000	7.050002
2360.000000	7.077286
2361.000000	7.094635
2362.000000	7.111099
2363.000000	7.122831
2364.000000	7.134145
2365.000000	7.152866
2366.000000	7.158439
2367.000000	7.172746
2368.000000	7.188153
2369.000000	7.197999
2370.000000	7.211727
2371.000000	7.215183
2372.000000	7.213997
2373.000000	7.217927
2374.000000	7.231122
2375.000000	7.236413
2376.000000	7.233770
2377.000000	7.244123
2378.000000	7.250335
2379.000000	7.250106
2380.000000	7.249855
2381.000000	7.242248
2382.000000	7.240161
2383.000000	7.242981
2384.000000	7.250747
2385.000000	7.240323
2386.000000	7.223670
2387.000000	7.223195
2388.000000	7.220530
2389.000000	7.214774
2390.000000	7.207674
2391.000000	7.201491
2392.000000	7.191801
2393.000000	7.169231
2394.000000	7.154913
2395.000000	7.150059
2396.000000	7.138797
2397.000000	7.125583
2398.000000	7.105148
2399.000000	7.099770
2400.000000	7.087356
2401.000000	7.066375
2402.000000	7.047387
2403.000000	7.032657
2404.000000	7.022185
2405.000000	7.000666
2406.000000	6.983526
2407.000000	6.974872
2408.000000	6.965502
2409.000000	6.955815
2410.000000	6.957576
2411.000000	6.943048
2412.000000	6.916857
2413.000000	6.904224
2414.000000	6.891121
2415.000000	6.890345
2416.000000	6.882250
2417.000000	6.863959
2418.000000	6.840963
2419.000000	6.827579
2420.000000	6.809096
2421.000000	6.785951
2422.000000	6.782016
2423.000000	6.780289
2424.000000	6.757686
2425.000000	6.732838
2426.000000	6.718362
2427.000000	6.700914
2428.000000	6.684887
2429.000000	6.671388
2430.000000	6.644048
2431.000000	6.626483
2432.000000	6.604657
2433.000000	6.565942
2434.000000	6.554071
2435.000000	6.547488
2436.000000	6.523766
2437.000000	6.487470
2438.000000	6.474574
2439.000000	6.446680
2440.000000	6.418333
2441.000000	6.389196
2442.000000	6.374004
2443.000000	6.349436
2444.000000	6.322079
2445.000000	6.291833
2446.000000	6.283556
2447.000000	6.233387
2448.000000	6.215275
2449.000000	6.182514
2450.000000	6.158034
2451.000000	6.154382
2452.000000	6.117525
2453.000000	6.121170
2454.000000	6.090167
2455.000000	6.080119
2456.000000	6.053003
2457.000000	6.044121
2458.000000	6.032624
2459.000000	6.009006
2460.000000	6.010121
2461.000000	6.003948
2462.000000	5.974776
2463.000000	5.986474
2464.000000	5.963020
2465.000000	5.974675
2466.000000	5.953851
2467.000000	5.951990
2468.000000	5.955261
2469.000000	5.943400
2470.000000	5.979215
2471.000000	5.947879
2472.000000	5.961014
2473.000000	5.972240
2474.000000	5.992887
2475.000000	5.988494
2476.000000	5.976538
2477.000000	5.939478
2478.000000	5.980061
2479.000000	6.018315
2480.000000	5.999940
2481.000000	5.992870
2482.000000	6.015206
2483.000000	6.001253
2484.000000	6.015358
2485.000000	6.023424
2486.000000	6.064499
2487.000000	6.080145
2488.000000	6.050507
2489.000000	6.131004
2490.000000	6.094457
2491.000000	6.065347
2492.000000	6.099440
2493.000000	6.095322
2494.000000	6.134854
2495.000000	6.139847
2496.000000	6.181629
2497.000000	6.224303
2498.000000	6.213186
2499.000000	6.340992
2500.000000	6.263692
