PE UV       SUBTECH     SPECTRUM    ASCII       PEDS        4.00        
   -1
CICIMAUCR0014-5.Sample.ASC
24/04/23
11:16:56.00
24/04/23
11:16:56.00
Vinicio Soto Monge
C. cupreomarginata
250,000000
1
Lambda 1050
1050L1511233
PerkinElmer UV WinLab 6.3.2.0749 / 2.02.05 Lambda 900 UV/VIS/NIR, Aug  7 2015 09:38:08

0
0
3350/servo 860,8/2
0
0
UV/VIS
1
1
1
DoubleDePol,CommonBeamDepol,RBeamAtt,SBeamAtt,60mm sphere, WB InGaAs Detector
0
0
0
0
Program
Program
3350/servo 860,8/2
3350/0,2 860,8/0,2
3350/0,2 860,8/0,2
0
15.00
 
 
 
0
 
860,8
319,2
860,8
Front
100
on
S:100 R:100
0
0
0
0
 
0
 
 
 
0
 
 
0
0
0
0
0
 
 
 
 
0
0


0
0
#HDR
-1
-1
#GR
nm
%R
1.0
0.0
2500,000000
-1,000000
2251
8
75,082300
5,658100
#DATA
250.000000	6.627333
251.000000	6.592200
252.000000	6.599233
253.000000	6.566000
254.000000	6.547600
255.000000	6.528633
256.000000	6.500433
257.000000	6.494500
258.000000	6.452233
259.000000	6.408733
260.000000	6.390433
261.000000	6.387300
262.000000	6.356567
263.000000	6.310333
264.000000	6.278633
265.000000	6.278933
266.000000	6.235800
267.000000	6.208067
268.000000	6.188133
269.000000	6.144833
270.000000	6.142633
271.000000	6.112367
272.000000	6.110900
273.000000	6.080467
274.000000	6.096367
275.000000	6.034500
276.000000	6.029867
277.000000	6.029400
278.000000	5.996400
279.000000	6.010800
280.000000	5.984167
281.000000	6.005967
282.000000	5.983133
283.000000	5.954767
284.000000	5.965500
285.000000	5.932633
286.000000	5.957133
287.000000	5.939467
288.000000	5.942800
289.000000	5.918400
290.000000	5.905533
291.000000	5.920800
292.000000	5.925800
293.000000	5.915533
294.000000	5.897967
295.000000	5.898300
296.000000	5.881033
297.000000	5.878067
298.000000	5.894267
299.000000	5.859633
300.000000	5.841800
301.000000	5.827833
302.000000	5.840600
303.000000	5.856400
304.000000	5.839833
305.000000	5.831967
306.000000	5.813567
307.000000	5.824400
308.000000	5.830433
309.000000	5.807233
310.000000	5.822433
311.000000	5.802200
312.000000	5.800933
313.000000	5.793433
314.000000	5.781200
315.000000	5.776433
316.000000	5.798400
317.000000	5.891733
318.000000	5.857367
319.000000	5.800500
320.000000	5.790833
321.000000	5.719300
322.000000	5.657867
323.000000	5.755367
324.000000	5.791233
325.000000	5.753033
326.000000	5.789233
327.000000	5.815133
328.000000	5.722833
329.000000	5.713067
330.000000	5.723467
331.000000	5.759233
332.000000	5.767200
333.000000	5.777100
334.000000	5.721433
335.000000	5.791967
336.000000	5.724133
337.000000	5.733100
338.000000	5.799667
339.000000	5.739467
340.000000	5.750933
341.000000	5.780233
342.000000	5.792700
343.000000	5.781433
344.000000	5.805133
345.000000	5.812633
346.000000	5.792233
347.000000	5.783633
348.000000	5.801067
349.000000	5.777867
350.000000	5.815300
351.000000	5.840867
352.000000	5.808900
353.000000	5.830300
354.000000	5.847733
355.000000	5.838233
356.000000	5.844000
357.000000	5.882300
358.000000	5.896200
359.000000	5.907333
360.000000	5.927633
361.000000	5.934600
362.000000	5.906933
363.000000	5.884133
364.000000	5.912300
365.000000	5.929900
366.000000	5.954733
367.000000	5.927333
368.000000	5.961367
369.000000	5.973600
370.000000	5.972400
371.000000	5.991067
372.000000	5.999800
373.000000	6.002400
374.000000	6.019433
375.000000	6.042633
376.000000	6.073600
377.000000	6.107200
378.000000	6.128500
379.000000	6.150067
380.000000	6.175233
381.000000	6.197333
382.000000	6.231267
383.000000	6.257000
384.000000	6.284400
385.000000	6.319900
386.000000	6.359167
387.000000	6.407533
388.000000	6.444533
389.000000	6.490367
390.000000	6.540933
391.000000	6.597333
392.000000	6.658733
393.000000	6.723633
394.000000	6.795733
395.000000	6.879100
396.000000	6.966233
397.000000	7.057067
398.000000	7.153167
399.000000	7.253767
400.000000	7.368900
401.000000	7.495867
402.000000	7.627000
403.000000	7.768667
404.000000	7.913700
405.000000	8.066067
406.000000	8.228367
407.000000	8.397800
408.000000	8.585433
409.000000	8.777067
410.000000	8.979933
411.000000	9.188433
412.000000	9.400700
413.000000	9.630500
414.000000	9.862467
415.000000	10.104567
416.000000	10.352733
417.000000	10.593400
418.000000	10.844767
419.000000	11.105367
420.000000	11.376333
421.000000	11.648500
422.000000	11.919733
423.000000	12.194967
424.000000	12.470933
425.000000	12.746667
426.000000	13.031867
427.000000	13.311867
428.000000	13.596067
429.000000	13.880400
430.000000	14.157900
431.000000	14.440433
432.000000	14.725567
433.000000	15.004933
434.000000	15.289500
435.000000	15.570933
436.000000	15.841633
437.000000	16.116567
438.000000	16.391567
439.000000	16.659033
440.000000	16.914167
441.000000	17.168567
442.000000	17.425233
443.000000	17.680133
444.000000	17.920800
445.000000	18.142200
446.000000	18.351767
447.000000	18.562667
448.000000	18.769633
449.000000	18.965300
450.000000	19.163900
451.000000	19.347467
452.000000	19.509533
453.000000	19.669400
454.000000	19.822233
455.000000	19.958833
456.000000	20.088733
457.000000	20.213233
458.000000	20.324833
459.000000	20.422033
460.000000	20.520833
461.000000	20.613567
462.000000	20.694167
463.000000	20.765867
464.000000	20.822233
465.000000	20.879200
466.000000	20.933500
467.000000	20.975533
468.000000	21.024633
469.000000	21.059700
470.000000	21.089567
471.000000	21.126433
472.000000	21.156100
473.000000	21.176733
474.000000	21.202967
475.000000	21.228067
476.000000	21.256867
477.000000	21.289300
478.000000	21.325467
479.000000	21.367700
480.000000	21.432633
481.000000	21.509267
482.000000	21.613200
483.000000	21.725533
484.000000	21.845367
485.000000	21.991767
486.000000	22.155433
487.000000	22.352800
488.000000	22.578333
489.000000	22.822733
490.000000	23.109533
491.000000	23.426333
492.000000	23.761467
493.000000	24.122633
494.000000	24.518100
495.000000	24.934200
496.000000	25.361167
497.000000	25.818933
498.000000	26.288133
499.000000	26.760733
500.000000	27.245933
501.000000	27.746000
502.000000	28.260933
503.000000	28.782567
504.000000	29.318533
505.000000	29.849800
506.000000	30.384700
507.000000	30.921533
508.000000	31.441933
509.000000	31.984100
510.000000	32.529100
511.000000	33.096900
512.000000	33.660367
513.000000	34.229567
514.000000	34.792233
515.000000	35.377300
516.000000	35.957633
517.000000	36.537033
518.000000	37.133400
519.000000	37.743800
520.000000	38.361833
521.000000	38.995467
522.000000	39.648833
523.000000	40.303033
524.000000	40.984100
525.000000	41.675200
526.000000	42.371233
527.000000	43.085100
528.000000	43.818333
529.000000	44.592200
530.000000	45.376633
531.000000	46.189833
532.000000	47.024500
533.000000	47.883600
534.000000	48.755833
535.000000	49.628100
536.000000	50.528067
537.000000	51.431100
538.000000	52.317900
539.000000	53.211567
540.000000	54.106900
541.000000	55.009600
542.000000	55.876800
543.000000	56.743433
544.000000	57.602667
545.000000	58.413867
546.000000	59.213333
547.000000	59.959167
548.000000	60.672600
549.000000	61.365033
550.000000	61.991867
551.000000	62.583600
552.000000	63.149667
553.000000	63.636900
554.000000	64.098300
555.000000	64.524000
556.000000	64.907333
557.000000	65.282200
558.000000	65.602667
559.000000	65.915833
560.000000	66.213233
561.000000	66.478467
562.000000	66.739567
563.000000	67.006767
564.000000	67.212233
565.000000	67.450900
566.000000	67.632333
567.000000	67.801400
568.000000	67.951367
569.000000	68.101300
570.000000	68.203867
571.000000	68.317633
572.000000	68.383467
573.000000	68.410833
574.000000	68.449167
575.000000	68.467200
576.000000	68.475200
577.000000	68.477267
578.000000	68.458500
579.000000	68.441467
580.000000	68.415800
581.000000	68.383467
582.000000	68.354200
583.000000	68.311500
584.000000	68.287167
585.000000	68.212033
586.000000	68.156733
587.000000	68.058267
588.000000	67.969533
589.000000	67.845800
590.000000	67.703533
591.000000	67.546100
592.000000	67.387200
593.000000	67.198100
594.000000	67.020933
595.000000	66.765833
596.000000	66.545433
597.000000	66.336167
598.000000	66.081500
599.000000	65.844900
600.000000	65.593700
601.000000	65.356900
602.000000	65.090667
603.000000	64.841500
604.000000	64.555700
605.000000	64.299933
606.000000	64.037033
607.000000	63.757300
608.000000	63.461033
609.000000	63.155167
610.000000	62.817167
611.000000	62.468367
612.000000	62.107933
613.000000	61.712633
614.000000	61.316467
615.000000	60.895400
616.000000	60.448000
617.000000	60.004633
618.000000	59.529667
619.000000	59.043100
620.000000	58.515367
621.000000	57.994367
622.000000	57.487667
623.000000	56.937867
624.000000	56.357133
625.000000	55.813467
626.000000	55.282600
627.000000	54.716367
628.000000	54.161633
629.000000	53.584567
630.000000	53.036133
631.000000	52.453067
632.000000	51.862733
633.000000	51.286233
634.000000	50.678267
635.000000	50.123000
636.000000	49.505233
637.000000	48.969000
638.000000	48.409833
639.000000	47.884500
640.000000	47.391167
641.000000	46.920400
642.000000	46.454667
643.000000	46.056933
644.000000	45.713867
645.000000	45.403267
646.000000	45.152933
647.000000	44.965167
648.000000	44.823267
649.000000	44.746467
650.000000	44.732333
651.000000	44.769000
652.000000	44.855533
653.000000	44.975500
654.000000	45.113633
655.000000	45.303567
656.000000	45.503600
657.000000	45.732500
658.000000	45.942600
659.000000	46.183833
660.000000	46.449933
661.000000	46.678133
662.000000	46.926333
663.000000	47.138933
664.000000	47.364933
665.000000	47.568300
666.000000	47.783467
667.000000	47.990467
668.000000	48.209300
669.000000	48.436400
670.000000	48.652267
671.000000	48.862500
672.000000	49.069433
673.000000	49.261333
674.000000	49.476733
675.000000	49.697400
676.000000	49.881400
677.000000	50.073633
678.000000	50.252400
679.000000	50.458667
680.000000	50.603100
681.000000	50.781100
682.000000	50.946467
683.000000	51.080733
684.000000	51.183100
685.000000	51.277400
686.000000	51.372700
687.000000	51.439300
688.000000	51.476567
689.000000	51.566267
690.000000	51.635000
691.000000	51.663067
692.000000	51.686967
693.000000	51.762933
694.000000	51.832767
695.000000	51.903867
696.000000	51.979833
697.000000	52.085500
698.000000	52.203267
699.000000	52.307200
700.000000	52.409400
701.000000	52.541933
702.000000	52.702533
703.000000	52.871867
704.000000	53.013033
705.000000	53.160667
706.000000	53.366200
707.000000	53.536167
708.000000	53.683200
709.000000	53.888367
710.000000	54.049867
711.000000	54.247200
712.000000	54.436533
713.000000	54.628500
714.000000	54.839100
715.000000	55.033600
716.000000	55.221533
717.000000	55.430267
718.000000	55.630300
719.000000	55.831467
720.000000	56.045833
721.000000	56.282800
722.000000	56.526133
723.000000	56.760267
724.000000	57.023900
725.000000	57.231700
726.000000	57.461867
727.000000	57.730333
728.000000	57.985533
729.000000	58.222167
730.000000	58.424033
731.000000	58.682467
732.000000	58.949633
733.000000	59.224600
734.000000	59.460800
735.000000	59.694533
736.000000	59.915633
737.000000	60.083033
738.000000	60.307333
739.000000	60.572667
740.000000	60.755400
741.000000	60.918600
742.000000	61.119900
743.000000	61.301533
744.000000	61.486167
745.000000	61.644133
746.000000	61.814033
747.000000	61.989867
748.000000	62.137067
749.000000	62.310333
750.000000	62.512900
751.000000	62.685400
752.000000	62.867533
753.000000	63.020533
754.000000	63.155767
755.000000	63.336967
756.000000	63.502367
757.000000	63.669967
758.000000	63.821100
759.000000	64.005300
760.000000	64.166733
761.000000	64.277733
762.000000	64.418500
763.000000	64.552233
764.000000	64.699533
765.000000	64.853567
766.000000	64.989833
767.000000	65.096367
768.000000	65.208267
769.000000	65.339367
770.000000	65.407200
771.000000	65.526333
772.000000	65.648067
773.000000	65.790900
774.000000	65.886500
775.000000	65.977700
776.000000	66.130167
777.000000	66.225100
778.000000	66.324467
779.000000	66.459867
780.000000	66.569600
781.000000	66.666800
782.000000	66.790133
783.000000	66.875467
784.000000	66.974400
785.000000	67.119200
786.000000	67.238367
787.000000	67.301167
788.000000	67.439400
789.000000	67.562133
790.000000	67.653800
791.000000	67.774533
792.000000	67.877067
793.000000	68.000800
794.000000	68.118133
795.000000	68.271000
796.000000	68.294400
797.000000	68.358500
798.000000	68.501933
799.000000	68.662567
800.000000	68.785167
801.000000	68.881167
802.000000	68.947833
803.000000	69.090500
804.000000	69.223767
805.000000	69.261067
806.000000	69.389000
807.000000	69.561700
808.000000	69.706767
809.000000	69.846967
810.000000	70.011933
811.000000	70.117867
812.000000	70.180733
813.000000	70.385933
814.000000	70.527867
815.000000	70.706867
816.000000	70.839900
817.000000	70.900433
818.000000	70.977133
819.000000	71.137533
820.000000	71.379933
821.000000	71.536933
822.000000	71.685700
823.000000	71.753700
824.000000	71.887533
825.000000	72.055700
826.000000	72.196800
827.000000	72.337900
828.000000	72.443133
829.000000	72.636400
830.000000	72.853133
831.000000	72.951300
832.000000	72.978233
833.000000	73.089300
834.000000	73.305833
835.000000	73.529000
836.000000	73.622933
837.000000	73.708100
838.000000	73.780833
839.000000	74.018700
840.000000	74.006133
841.000000	74.068800
842.000000	74.237100
843.000000	74.351000
844.000000	74.428767
845.000000	74.446033
846.000000	74.603800
847.000000	74.745367
848.000000	74.884600
849.000000	74.857167
850.000000	74.872800
851.000000	75.167033
852.000000	75.321033
853.000000	75.085200
854.000000	75.441567
855.000000	75.090533
856.000000	75.496967
857.000000	75.249867
858.000000	75.279122
859.000000	74.036016
860.000000	74.321714
861.000000	74.631012
862.000000	74.997545
863.000000	75.413976
864.000000	75.771459
865.000000	76.197809
866.000000	76.582948
867.000000	76.992507
868.000000	77.384551
869.000000	77.710966
870.000000	78.054551
871.000000	78.367233
872.000000	78.664850
873.000000	78.897631
874.000000	79.217084
875.000000	79.473601
876.000000	79.782586
877.000000	80.006411
878.000000	80.229593
879.000000	80.462544
880.000000	80.652068
881.000000	80.869526
882.000000	81.018571
883.000000	81.233810
884.000000	81.403355
885.000000	81.507253
886.000000	81.602742
887.000000	81.775682
888.000000	81.883577
889.000000	81.947425
890.000000	82.015553
891.000000	82.121242
892.000000	82.190507
893.000000	82.252455
894.000000	82.290572
895.000000	82.345328
896.000000	82.371192
897.000000	82.395916
898.000000	82.417774
899.000000	82.423481
900.000000	82.449212
901.000000	82.450706
902.000000	82.468847
903.000000	82.475576
904.000000	82.471757
905.000000	82.443838
906.000000	82.454785
907.000000	82.432744
908.000000	82.435445
909.000000	82.462219
910.000000	82.463125
911.000000	82.455172
912.000000	82.477626
913.000000	82.475897
914.000000	82.495167
915.000000	82.530146
916.000000	82.556001
917.000000	82.571312
918.000000	82.553275
919.000000	82.548229
920.000000	82.558553
921.000000	82.535908
922.000000	82.531442
923.000000	82.529810
924.000000	82.506856
925.000000	82.509869
926.000000	82.469395
927.000000	82.432940
928.000000	82.425633
929.000000	82.422831
930.000000	82.376584
931.000000	82.335544
932.000000	82.322677
933.000000	82.259117
934.000000	82.193838
935.000000	82.150251
936.000000	82.106324
937.000000	82.071543
938.000000	81.966907
939.000000	81.922983
940.000000	81.883533
941.000000	81.836532
942.000000	81.760581
943.000000	81.706554
944.000000	81.659684
945.000000	81.598650
946.000000	81.520510
947.000000	81.471048
948.000000	81.365534
949.000000	81.309185
950.000000	81.245491
951.000000	81.153273
952.000000	81.054224
953.000000	80.976033
954.000000	80.869431
955.000000	80.775721
956.000000	80.700706
957.000000	80.588808
958.000000	80.481452
959.000000	80.352330
960.000000	80.256358
961.000000	80.141861
962.000000	80.014389
963.000000	79.892890
964.000000	79.781435
965.000000	79.676720
966.000000	79.560295
967.000000	79.461122
968.000000	79.345866
969.000000	79.251394
970.000000	79.139431
971.000000	79.043340
972.000000	78.929962
973.000000	78.833160
974.000000	78.744386
975.000000	78.637555
976.000000	78.522783
977.000000	78.425928
978.000000	78.340096
979.000000	78.254075
980.000000	78.154612
981.000000	78.060237
982.000000	77.956460
983.000000	77.866951
984.000000	77.772740
985.000000	77.677314
986.000000	77.589363
987.000000	77.498986
988.000000	77.396329
989.000000	77.315580
990.000000	77.215762
991.000000	77.144406
992.000000	77.071316
993.000000	77.000930
994.000000	76.910009
995.000000	76.830084
996.000000	76.775847
997.000000	76.701153
998.000000	76.619373
999.000000	76.549650
1000.000000	76.474614
1001.000000	76.406920
1002.000000	76.352051
1003.000000	76.275790
1004.000000	76.206291
1005.000000	76.138183
1006.000000	76.060181
1007.000000	75.987238
1008.000000	75.906738
1009.000000	75.831995
1010.000000	75.754920
1011.000000	75.683422
1012.000000	75.617226
1013.000000	75.560609
1014.000000	75.514844
1015.000000	75.480110
1016.000000	75.441444
1017.000000	75.406250
1018.000000	75.392271
1019.000000	75.374480
1020.000000	75.361228
1021.000000	75.349360
1022.000000	75.339322
1023.000000	75.338871
1024.000000	75.344809
1025.000000	75.352516
1026.000000	75.360762
1027.000000	75.360457
1028.000000	75.363606
1029.000000	75.371036
1030.000000	75.369934
1031.000000	75.378693
1032.000000	75.389959
1033.000000	75.395914
1034.000000	75.399779
1035.000000	75.390787
1036.000000	75.388332
1037.000000	75.400888
1038.000000	75.403090
1039.000000	75.396121
1040.000000	75.397085
1041.000000	75.400725
1042.000000	75.396672
1043.000000	75.395207
1044.000000	75.407863
1045.000000	75.411256
1046.000000	75.406155
1047.000000	75.409760
1048.000000	75.418474
1049.000000	75.440203
1050.000000	75.458220
1051.000000	75.479648
1052.000000	75.506430
1053.000000	75.538834
1054.000000	75.576066
1055.000000	75.607216
1056.000000	75.647385
1057.000000	75.689057
1058.000000	75.730635
1059.000000	75.773306
1060.000000	75.819568
1061.000000	75.871750
1062.000000	75.928308
1063.000000	75.961386
1064.000000	76.000125
1065.000000	76.040798
1066.000000	76.079171
1067.000000	76.119947
1068.000000	76.159360
1069.000000	76.202708
1070.000000	76.250285
1071.000000	76.302795
1072.000000	76.334913
1073.000000	76.371872
1074.000000	76.412836
1075.000000	76.457277
1076.000000	76.497187
1077.000000	76.537108
1078.000000	76.581253
1079.000000	76.627042
1080.000000	76.670398
1081.000000	76.710642
1082.000000	76.748202
1083.000000	76.798621
1084.000000	76.850058
1085.000000	76.883313
1086.000000	76.934739
1087.000000	76.993801
1088.000000	77.032349
1089.000000	77.071261
1090.000000	77.119303
1091.000000	77.160033
1092.000000	77.196412
1093.000000	77.236466
1094.000000	77.279938
1095.000000	77.315456
1096.000000	77.331033
1097.000000	77.371864
1098.000000	77.395865
1099.000000	77.418047
1100.000000	77.441650
1101.000000	77.459449
1102.000000	77.472601
1103.000000	77.495605
1104.000000	77.510458
1105.000000	77.519734
1106.000000	77.532308
1107.000000	77.540350
1108.000000	77.547442
1109.000000	77.553511
1110.000000	77.566698
1111.000000	77.587871
1112.000000	77.586520
1113.000000	77.598208
1114.000000	77.602075
1115.000000	77.614644
1116.000000	77.623850
1117.000000	77.631132
1118.000000	77.616422
1119.000000	77.607297
1120.000000	77.576609
1121.000000	77.541498
1122.000000	77.509355
1123.000000	77.449474
1124.000000	77.380228
1125.000000	77.287552
1126.000000	77.205793
1127.000000	77.076957
1128.000000	76.951514
1129.000000	76.784505
1130.000000	76.577953
1131.000000	76.305773
1132.000000	76.023023
1133.000000	75.709419
1134.000000	75.422743
1135.000000	75.064820
1136.000000	74.640983
1137.000000	74.204606
1138.000000	73.767748
1139.000000	73.350514
1140.000000	72.956081
1141.000000	72.572142
1142.000000	72.196733
1143.000000	71.823957
1144.000000	71.477378
1145.000000	71.192705
1146.000000	70.963272
1147.000000	70.811920
1148.000000	70.723353
1149.000000	70.692521
1150.000000	70.669063
1151.000000	70.665421
1152.000000	70.643009
1153.000000	70.600879
1154.000000	70.511337
1155.000000	70.358498
1156.000000	70.155333
1157.000000	69.864628
1158.000000	69.566457
1159.000000	69.194235
1160.000000	68.797637
1161.000000	68.419181
1162.000000	68.002234
1163.000000	67.579109
1164.000000	67.149565
1165.000000	66.716012
1166.000000	66.292812
1167.000000	65.859108
1168.000000	65.439671
1169.000000	65.038118
1170.000000	64.630867
1171.000000	64.227724
1172.000000	63.809253
1173.000000	63.443834
1174.000000	63.081343
1175.000000	62.711754
1176.000000	62.362157
1177.000000	61.985813
1178.000000	61.556402
1179.000000	61.067954
1180.000000	60.522821
1181.000000	59.950667
1182.000000	59.370036
1183.000000	58.832849
1184.000000	58.408845
1185.000000	58.119369
1186.000000	57.976810
1187.000000	57.984620
1188.000000	58.126791
1189.000000	58.420583
1190.000000	58.823990
1191.000000	59.295106
1192.000000	59.825548
1193.000000	60.325404
1194.000000	60.762995
1195.000000	61.142354
1196.000000	61.431633
1197.000000	61.669262
1198.000000	61.843208
1199.000000	61.969638
1200.000000	62.076271
1201.000000	62.150295
1202.000000	62.200568
1203.000000	62.244466
1204.000000	62.270033
1205.000000	62.313931
1206.000000	62.388775
1207.000000	62.437560
1208.000000	62.527648
1209.000000	62.631814
1210.000000	62.746956
1211.000000	62.865551
1212.000000	63.003466
1213.000000	63.148485
1214.000000	63.279087
1215.000000	63.426088
1216.000000	63.582760
1217.000000	63.734867
1218.000000	63.901674
1219.000000	64.078718
1220.000000	64.259002
1221.000000	64.430977
1222.000000	64.625406
1223.000000	64.827182
1224.000000	65.021309
1225.000000	65.221423
1226.000000	65.435158
1227.000000	65.646803
1228.000000	65.846631
1229.000000	66.047550
1230.000000	66.247283
1231.000000	66.441802
1232.000000	66.640601
1233.000000	66.835667
1234.000000	67.033373
1235.000000	67.214409
1236.000000	67.399499
1237.000000	67.590930
1238.000000	67.768722
1239.000000	67.932299
1240.000000	68.113096
1241.000000	68.287908
1242.000000	68.452992
1243.000000	68.615883
1244.000000	68.762913
1245.000000	68.908558
1246.000000	69.049741
1247.000000	69.183953
1248.000000	69.311282
1249.000000	69.431959
1250.000000	69.544478
1251.000000	69.641127
1252.000000	69.723278
1253.000000	69.820464
1254.000000	69.914279
1255.000000	69.983925
1256.000000	70.048533
1257.000000	70.123088
1258.000000	70.188051
1259.000000	70.231662
1260.000000	70.283993
1261.000000	70.344870
1262.000000	70.398819
1263.000000	70.452775
1264.000000	70.497858
1265.000000	70.548774
1266.000000	70.592189
1267.000000	70.639825
1268.000000	70.684984
1269.000000	70.722529
1270.000000	70.766815
1271.000000	70.811523
1272.000000	70.842584
1273.000000	70.881434
1274.000000	70.928907
1275.000000	70.976537
1276.000000	71.028450
1277.000000	71.077004
1278.000000	71.134407
1279.000000	71.203577
1280.000000	71.270795
1281.000000	71.341795
1282.000000	71.415121
1283.000000	71.488841
1284.000000	71.565395
1285.000000	71.640943
1286.000000	71.716099
1287.000000	71.785510
1288.000000	71.839240
1289.000000	71.889680
1290.000000	71.936306
1291.000000	71.978879
1292.000000	72.017748
1293.000000	72.042102
1294.000000	72.058547
1295.000000	72.064894
1296.000000	72.079146
1297.000000	72.093476
1298.000000	72.101781
1299.000000	72.102413
1300.000000	72.104255
1301.000000	72.105582
1302.000000	72.093362
1303.000000	72.075668
1304.000000	72.060084
1305.000000	72.036560
1306.000000	72.002663
1307.000000	71.964822
1308.000000	71.919223
1309.000000	71.864131
1310.000000	71.795399
1311.000000	71.725768
1312.000000	71.650161
1313.000000	71.578092
1314.000000	71.496017
1315.000000	71.397868
1316.000000	71.301555
1317.000000	71.199775
1318.000000	71.097404
1319.000000	71.003616
1320.000000	70.884621
1321.000000	70.754744
1322.000000	70.634579
1323.000000	70.508298
1324.000000	70.370774
1325.000000	70.222275
1326.000000	70.059909
1327.000000	69.916062
1328.000000	69.749182
1329.000000	69.570250
1330.000000	69.384353
1331.000000	69.184533
1332.000000	68.981018
1333.000000	68.759274
1334.000000	68.524704
1335.000000	68.278033
1336.000000	68.028093
1337.000000	67.769401
1338.000000	67.500205
1339.000000	67.212434
1340.000000	66.915643
1341.000000	66.606409
1342.000000	66.273755
1343.000000	65.939925
1344.000000	65.588725
1345.000000	65.198124
1346.000000	64.776672
1347.000000	64.407757
1348.000000	63.968822
1349.000000	63.486546
1350.000000	62.980799
1351.000000	62.416978
1352.000000	61.789742
1353.000000	61.126299
1354.000000	60.568448
1355.000000	59.992538
1356.000000	59.492864
1357.000000	59.115279
1358.000000	58.884675
1359.000000	58.734958
1360.000000	58.590529
1361.000000	58.573381
1362.000000	58.457421
1363.000000	58.235665
1364.000000	58.030937
1365.000000	57.817901
1366.000000	57.548609
1367.000000	57.316344
1368.000000	57.018847
1369.000000	56.666435
1370.000000	56.308520
1371.000000	55.932656
1372.000000	55.507469
1373.000000	55.091418
1374.000000	54.676135
1375.000000	54.338227
1376.000000	54.079630
1377.000000	53.899630
1378.000000	53.747919
1379.000000	53.626452
1380.000000	53.467666
1381.000000	53.302198
1382.000000	53.006678
1383.000000	52.605447
1384.000000	52.123242
1385.000000	51.610181
1386.000000	51.073311
1387.000000	50.625522
1388.000000	50.229598
1389.000000	49.775213
1390.000000	49.372144
1391.000000	49.069107
1392.000000	48.781676
1393.000000	48.446542
1394.000000	48.200318
1395.000000	48.000294
1396.000000	47.714857
1397.000000	47.283865
1398.000000	46.910744
1399.000000	46.618651
1400.000000	46.287542
1401.000000	45.873002
1402.000000	45.286471
1403.000000	44.773946
1404.000000	44.309660
1405.000000	43.847875
1406.000000	43.354423
1407.000000	42.883356
1408.000000	42.425460
1409.000000	41.981484
1410.000000	41.531637
1411.000000	41.100710
1412.000000	40.704360
1413.000000	40.436501
1414.000000	40.157062
1415.000000	39.823116
1416.000000	39.470782
1417.000000	39.119578
1418.000000	38.883428
1419.000000	38.604570
1420.000000	38.295497
1421.000000	37.964615
1422.000000	37.633428
1423.000000	37.367302
1424.000000	37.104179
1425.000000	36.817839
1426.000000	36.528696
1427.000000	36.265915
1428.000000	36.032308
1429.000000	35.812362
1430.000000	35.555009
1431.000000	35.365320
1432.000000	35.206385
1433.000000	35.024460
1434.000000	34.844128
1435.000000	34.668514
1436.000000	34.501281
1437.000000	34.344097
1438.000000	34.203213
1439.000000	34.022894
1440.000000	33.869207
1441.000000	33.727707
1442.000000	33.560432
1443.000000	33.413456
1444.000000	33.259388
1445.000000	33.130791
1446.000000	33.004720
1447.000000	32.854387
1448.000000	32.684317
1449.000000	32.539256
1450.000000	32.451025
1451.000000	32.334833
1452.000000	32.212106
1453.000000	32.067569
1454.000000	31.943739
1455.000000	31.842158
1456.000000	31.731443
1457.000000	31.642245
1458.000000	31.537249
1459.000000	31.435954
1460.000000	31.365892
1461.000000	31.293202
1462.000000	31.228842
1463.000000	31.170537
1464.000000	31.094846
1465.000000	31.044034
1466.000000	31.004726
1467.000000	30.953890
1468.000000	30.920871
1469.000000	30.879794
1470.000000	30.861454
1471.000000	30.850613
1472.000000	30.817777
1473.000000	30.783474
1474.000000	30.747570
1475.000000	30.700226
1476.000000	30.676269
1477.000000	30.661203
1478.000000	30.642377
1479.000000	30.620612
1480.000000	30.597167
1481.000000	30.585684
1482.000000	30.570934
1483.000000	30.549997
1484.000000	30.543983
1485.000000	30.539569
1486.000000	30.544882
1487.000000	30.551134
1488.000000	30.558325
1489.000000	30.558699
1490.000000	30.557024
1491.000000	30.560740
1492.000000	30.566029
1493.000000	30.583802
1494.000000	30.584770
1495.000000	30.602047
1496.000000	30.624864
1497.000000	30.658976
1498.000000	30.685790
1499.000000	30.708858
1500.000000	30.738549
1501.000000	30.782262
1502.000000	30.813887
1503.000000	30.860936
1504.000000	30.897124
1505.000000	30.943825
1506.000000	31.000273
1507.000000	31.056083
1508.000000	31.103375
1509.000000	31.152768
1510.000000	31.200267
1511.000000	31.243167
1512.000000	31.294632
1513.000000	31.348085
1514.000000	31.394667
1515.000000	31.444840
1516.000000	31.497873
1517.000000	31.550311
1518.000000	31.585806
1519.000000	31.627219
1520.000000	31.680632
1521.000000	31.726422
1522.000000	31.774274
1523.000000	31.815872
1524.000000	31.862598
1525.000000	31.904587
1526.000000	31.949625
1527.000000	31.991527
1528.000000	32.026786
1529.000000	32.062095
1530.000000	32.094075
1531.000000	32.130300
1532.000000	32.162441
1533.000000	32.190359
1534.000000	32.221807
1535.000000	32.245472
1536.000000	32.269770
1537.000000	32.291630
1538.000000	32.309605
1539.000000	32.329052
1540.000000	32.349250
1541.000000	32.367843
1542.000000	32.385232
1543.000000	32.398796
1544.000000	32.415257
1545.000000	32.448323
1546.000000	32.469992
1547.000000	32.504017
1548.000000	32.541975
1549.000000	32.568790
1550.000000	32.591637
1551.000000	32.621920
1552.000000	32.648303
1553.000000	32.673500
1554.000000	32.702095
1555.000000	32.720087
1556.000000	32.723372
1557.000000	32.733827
1558.000000	32.744735
1559.000000	32.746108
1560.000000	32.755751
1561.000000	32.753546
1562.000000	32.743864
1563.000000	32.736521
1564.000000	32.723297
1565.000000	32.709429
1566.000000	32.696031
1567.000000	32.682498
1568.000000	32.664261
1569.000000	32.655061
1570.000000	32.645466
1571.000000	32.633799
1572.000000	32.637965
1573.000000	32.636876
1574.000000	32.635489
1575.000000	32.646869
1576.000000	32.656480
1577.000000	32.675998
1578.000000	32.700216
1579.000000	32.723960
1580.000000	32.744260
1581.000000	32.768340
1582.000000	32.800377
1583.000000	32.846601
1584.000000	32.899872
1585.000000	32.941035
1586.000000	32.992779
1587.000000	33.050841
1588.000000	33.102429
1589.000000	33.159222
1590.000000	33.222407
1591.000000	33.280878
1592.000000	33.343815
1593.000000	33.409190
1594.000000	33.467351
1595.000000	33.534365
1596.000000	33.611908
1597.000000	33.689629
1598.000000	33.775279
1599.000000	33.865586
1600.000000	33.945907
1601.000000	34.028952
1602.000000	34.108305
1603.000000	34.187975
1604.000000	34.283609
1605.000000	34.376558
1606.000000	34.461543
1607.000000	34.550278
1608.000000	34.640743
1609.000000	34.728547
1610.000000	34.825336
1611.000000	34.911055
1612.000000	34.988668
1613.000000	35.084296
1614.000000	35.180901
1615.000000	35.270581
1616.000000	35.361231
1617.000000	35.459708
1618.000000	35.551198
1619.000000	35.641378
1620.000000	35.727711
1621.000000	35.829367
1622.000000	35.930524
1623.000000	36.025633
1624.000000	36.119569
1625.000000	36.226889
1626.000000	36.325627
1627.000000	36.423821
1628.000000	36.529660
1629.000000	36.637611
1630.000000	36.749874
1631.000000	36.845935
1632.000000	36.944031
1633.000000	37.035870
1634.000000	37.124131
1635.000000	37.218850
1636.000000	37.310372
1637.000000	37.392076
1638.000000	37.469364
1639.000000	37.548614
1640.000000	37.635649
1641.000000	37.712504
1642.000000	37.783018
1643.000000	37.862085
1644.000000	37.913165
1645.000000	37.985043
1646.000000	38.064158
1647.000000	38.127136
1648.000000	38.181839
1649.000000	38.231748
1650.000000	38.277462
1651.000000	38.334341
1652.000000	38.349600
1653.000000	38.381511
1654.000000	38.399446
1655.000000	38.400214
1656.000000	38.406118
1657.000000	38.399935
1658.000000	38.384625
1659.000000	38.361247
1660.000000	38.309116
1661.000000	38.261678
1662.000000	38.197213
1663.000000	38.125184
1664.000000	38.024393
1665.000000	37.927870
1666.000000	37.804068
1667.000000	37.699091
1668.000000	37.507596
1669.000000	37.312770
1670.000000	37.102135
1671.000000	36.876271
1672.000000	36.599801
1673.000000	36.287523
1674.000000	35.932105
1675.000000	35.523567
1676.000000	35.055712
1677.000000	34.542335
1678.000000	33.955552
1679.000000	33.327651
1680.000000	32.672176
1681.000000	32.072516
1682.000000	31.564903
1683.000000	31.169485
1684.000000	30.915767
1685.000000	30.763119
1686.000000	30.712026
1687.000000	30.679175
1688.000000	30.638355
1689.000000	30.551918
1690.000000	30.406668
1691.000000	30.228173
1692.000000	30.032435
1693.000000	29.857597
1694.000000	29.742444
1695.000000	29.671289
1696.000000	29.677129
1697.000000	29.740027
1698.000000	29.868557
1699.000000	30.047954
1700.000000	30.210958
1701.000000	30.405009
1702.000000	30.565752
1703.000000	30.696252
1704.000000	30.799573
1705.000000	30.873320
1706.000000	30.942413
1707.000000	30.972241
1708.000000	31.010286
1709.000000	31.030614
1710.000000	31.025197
1711.000000	31.017229
1712.000000	30.982544
1713.000000	30.910799
1714.000000	30.841051
1715.000000	30.763198
1716.000000	30.686739
1717.000000	30.613531
1718.000000	30.554196
1719.000000	30.490614
1720.000000	30.455392
1721.000000	30.435231
1722.000000	30.405165
1723.000000	30.369860
1724.000000	30.315380
1725.000000	30.248048
1726.000000	30.145462
1727.000000	30.044178
1728.000000	29.915172
1729.000000	29.789887
1730.000000	29.664672
1731.000000	29.539808
1732.000000	29.437535
1733.000000	29.384392
1734.000000	29.389539
1735.000000	29.442103
1736.000000	29.536762
1737.000000	29.660895
1738.000000	29.872803
1739.000000	30.105265
1740.000000	30.345778
1741.000000	30.604928
1742.000000	30.860901
1743.000000	31.096343
1744.000000	31.300133
1745.000000	31.482074
1746.000000	31.637747
1747.000000	31.768047
1748.000000	31.875143
1749.000000	31.962010
1750.000000	32.039711
1751.000000	32.090331
1752.000000	32.130281
1753.000000	32.147425
1754.000000	32.142352
1755.000000	32.140909
1756.000000	32.100315
1757.000000	32.046715
1758.000000	31.985316
1759.000000	31.917004
1760.000000	31.842553
1761.000000	31.772855
1762.000000	31.733177
1763.000000	31.709554
1764.000000	31.728505
1765.000000	31.782754
1766.000000	31.864500
1767.000000	31.973393
1768.000000	32.096818
1769.000000	32.215769
1770.000000	32.358906
1771.000000	32.515126
1772.000000	32.660651
1773.000000	32.814157
1774.000000	32.964819
1775.000000	33.113458
1776.000000	33.243544
1777.000000	33.356000
1778.000000	33.475231
1779.000000	33.584849
1780.000000	33.676281
1781.000000	33.778933
1782.000000	33.867057
1783.000000	33.964183
1784.000000	34.050556
1785.000000	34.149040
1786.000000	34.244831
1787.000000	34.322730
1788.000000	34.392488
1789.000000	34.469759
1790.000000	34.538560
1791.000000	34.610653
1792.000000	34.672714
1793.000000	34.739167
1794.000000	34.801964
1795.000000	34.862913
1796.000000	34.923611
1797.000000	34.975881
1798.000000	35.024585
1799.000000	35.085646
1800.000000	35.163896
1801.000000	35.238020
1802.000000	35.293961
1803.000000	35.337804
1804.000000	35.392301
1805.000000	35.461098
1806.000000	35.540373
1807.000000	35.603450
1808.000000	35.652316
1809.000000	35.686907
1810.000000	35.729245
1811.000000	35.795133
1812.000000	35.845233
1813.000000	35.867896
1814.000000	35.887954
1815.000000	35.909929
1816.000000	35.928900
1817.000000	35.930936
1818.000000	35.944379
1819.000000	35.987231
1820.000000	36.041440
1821.000000	36.083064
1822.000000	36.105711
1823.000000	36.119543
1824.000000	36.152420
1825.000000	36.213181
1826.000000	36.295126
1827.000000	36.375245
1828.000000	36.466809
1829.000000	36.577655
1830.000000	36.671044
1831.000000	36.764028
1832.000000	36.851501
1833.000000	36.928079
1834.000000	37.022847
1835.000000	37.129898
1836.000000	37.217174
1837.000000	37.293269
1838.000000	37.352447
1839.000000	37.406350
1840.000000	37.466413
1841.000000	37.521993
1842.000000	37.551164
1843.000000	37.550581
1844.000000	37.559381
1845.000000	37.614700
1846.000000	37.696073
1847.000000	37.792799
1848.000000	37.871769
1849.000000	37.928363
1850.000000	37.943965
1851.000000	37.961605
1852.000000	37.985527
1853.000000	38.018294
1854.000000	38.076531
1855.000000	38.094751
1856.000000	38.098445
1857.000000	38.104030
1858.000000	38.075304
1859.000000	38.033115
1860.000000	37.970653
1861.000000	37.880589
1862.000000	37.778183
1863.000000	37.659683
1864.000000	37.543550
1865.000000	37.432237
1866.000000	37.299297
1867.000000	37.169760
1868.000000	37.007147
1869.000000	36.777066
1870.000000	36.485308
1871.000000	36.192519
1872.000000	35.856771
1873.000000	35.477294
1874.000000	35.051886
1875.000000	34.599089
1876.000000	34.120049
1877.000000	33.626952
1878.000000	33.101802
1879.000000	32.548801
1880.000000	31.983162
1881.000000	31.407264
1882.000000	30.778768
1883.000000	30.176469
1884.000000	29.567283
1885.000000	28.955975
1886.000000	28.393357
1887.000000	27.878910
1888.000000	27.399222
1889.000000	26.928342
1890.000000	26.494364
1891.000000	26.066930
1892.000000	25.622967
1893.000000	25.168250
1894.000000	24.774377
1895.000000	24.382584
1896.000000	24.024595
1897.000000	23.676866
1898.000000	23.293133
1899.000000	22.926655
1900.000000	22.566091
1901.000000	22.211125
1902.000000	21.882784
1903.000000	21.561497
1904.000000	21.260314
1905.000000	20.952911
1906.000000	20.626607
1907.000000	20.321004
1908.000000	20.030238
1909.000000	19.760712
1910.000000	19.525889
1911.000000	19.295410
1912.000000	19.043052
1913.000000	18.806039
1914.000000	18.585870
1915.000000	18.332351
1916.000000	18.125950
1917.000000	17.931401
1918.000000	17.732797
1919.000000	17.528135
1920.000000	17.381109
1921.000000	17.220259
1922.000000	17.045245
1923.000000	16.897582
1924.000000	16.759145
1925.000000	16.639546
1926.000000	16.504451
1927.000000	16.402492
1928.000000	16.304930
1929.000000	16.209472
1930.000000	16.141186
1931.000000	16.075555
1932.000000	16.012478
1933.000000	15.951122
1934.000000	15.888391
1935.000000	15.865475
1936.000000	15.845228
1937.000000	15.832670
1938.000000	15.817010
1939.000000	15.833415
1940.000000	15.850981
1941.000000	15.861949
1942.000000	15.855698
1943.000000	15.894552
1944.000000	15.922700
1945.000000	15.966386
1946.000000	16.002819
1947.000000	16.060485
1948.000000	16.115028
1949.000000	16.179855
1950.000000	16.228972
1951.000000	16.288837
1952.000000	16.342697
1953.000000	16.404660
1954.000000	16.478988
1955.000000	16.565564
1956.000000	16.639511
1957.000000	16.707554
1958.000000	16.785302
1959.000000	16.882989
1960.000000	16.946093
1961.000000	17.019484
1962.000000	17.099563
1963.000000	17.193324
1964.000000	17.268284
1965.000000	17.325812
1966.000000	17.405148
1967.000000	17.491392
1968.000000	17.561856
1969.000000	17.650278
1970.000000	17.727611
1971.000000	17.818465
1972.000000	17.910768
1973.000000	17.990611
1974.000000	18.077113
1975.000000	18.150760
1976.000000	18.255731
1977.000000	18.337090
1978.000000	18.428430
1979.000000	18.515498
1980.000000	18.614571
1981.000000	18.697409
1982.000000	18.795679
1983.000000	18.885785
1984.000000	18.965950
1985.000000	19.060594
1986.000000	19.141357
1987.000000	19.234684
1988.000000	19.322855
1989.000000	19.399246
1990.000000	19.490307
1991.000000	19.565146
1992.000000	19.634658
1993.000000	19.708738
1994.000000	19.782516
1995.000000	19.848957
1996.000000	19.924566
1997.000000	19.976946
1998.000000	20.043284
1999.000000	20.093886
2000.000000	20.151199
2001.000000	20.199377
2002.000000	20.232634
2003.000000	20.267765
2004.000000	20.310985
2005.000000	20.351323
2006.000000	20.380222
2007.000000	20.405818
2008.000000	20.421172
2009.000000	20.433759
2010.000000	20.447145
2011.000000	20.450260
2012.000000	20.463986
2013.000000	20.461230
2014.000000	20.454729
2015.000000	20.436069
2016.000000	20.422206
2017.000000	20.389620
2018.000000	20.375436
2019.000000	20.338247
2020.000000	20.292531
2021.000000	20.260512
2022.000000	20.235706
2023.000000	20.191079
2024.000000	20.136769
2025.000000	20.090748
2026.000000	20.031715
2027.000000	19.980942
2028.000000	19.914616
2029.000000	19.847524
2030.000000	19.795312
2031.000000	19.721441
2032.000000	19.649948
2033.000000	19.569018
2034.000000	19.478673
2035.000000	19.388568
2036.000000	19.292567
2037.000000	19.205761
2038.000000	19.096450
2039.000000	18.984975
2040.000000	18.871954
2041.000000	18.773850
2042.000000	18.657810
2043.000000	18.544522
2044.000000	18.419673
2045.000000	18.316552
2046.000000	18.207087
2047.000000	18.099978
2048.000000	17.994065
2049.000000	17.899644
2050.000000	17.816115
2051.000000	17.746799
2052.000000	17.677385
2053.000000	17.631198
2054.000000	17.585014
2055.000000	17.545274
2056.000000	17.533399
2057.000000	17.518583
2058.000000	17.508439
2059.000000	17.505553
2060.000000	17.517675
2061.000000	17.529620
2062.000000	17.553069
2063.000000	17.590195
2064.000000	17.619175
2065.000000	17.653440
2066.000000	17.683086
2067.000000	17.717516
2068.000000	17.758175
2069.000000	17.806070
2070.000000	17.843080
2071.000000	17.879677
2072.000000	17.918089
2073.000000	17.965758
2074.000000	18.001915
2075.000000	18.035846
2076.000000	18.077176
2077.000000	18.115991
2078.000000	18.145933
2079.000000	18.179034
2080.000000	18.209684
2081.000000	18.242258
2082.000000	18.274125
2083.000000	18.295741
2084.000000	18.324937
2085.000000	18.351057
2086.000000	18.372214
2087.000000	18.397269
2088.000000	18.423282
2089.000000	18.441015
2090.000000	18.464008
2091.000000	18.490358
2092.000000	18.501405
2093.000000	18.519289
2094.000000	18.539346
2095.000000	18.563709
2096.000000	18.601160
2097.000000	18.625211
2098.000000	18.635233
2099.000000	18.659287
2100.000000	18.697823
2101.000000	18.727975
2102.000000	18.757908
2103.000000	18.788303
2104.000000	18.817082
2105.000000	18.848066
2106.000000	18.881175
2107.000000	18.910652
2108.000000	18.936952
2109.000000	18.966242
2110.000000	18.989837
2111.000000	19.007584
2112.000000	19.039492
2113.000000	19.079118
2114.000000	19.098795
2115.000000	19.124290
2116.000000	19.155273
2117.000000	19.178362
2118.000000	19.199324
2119.000000	19.215410
2120.000000	19.232050
2121.000000	19.257691
2122.000000	19.272586
2123.000000	19.283340
2124.000000	19.295476
2125.000000	19.303371
2126.000000	19.308581
2127.000000	19.310449
2128.000000	19.302629
2129.000000	19.300716
2130.000000	19.302285
2131.000000	19.287856
2132.000000	19.269574
2133.000000	19.250685
2134.000000	19.233448
2135.000000	19.217591
2136.000000	19.198764
2137.000000	19.172549
2138.000000	19.141642
2139.000000	19.107039
2140.000000	19.072541
2141.000000	19.052292
2142.000000	19.020440
2143.000000	18.987786
2144.000000	18.944012
2145.000000	18.901421
2146.000000	18.858084
2147.000000	18.828899
2148.000000	18.792752
2149.000000	18.741443
2150.000000	18.695021
2151.000000	18.643119
2152.000000	18.599620
2153.000000	18.555058
2154.000000	18.519679
2155.000000	18.473645
2156.000000	18.434660
2157.000000	18.390051
2158.000000	18.352216
2159.000000	18.321765
2160.000000	18.293665
2161.000000	18.258081
2162.000000	18.229135
2163.000000	18.203647
2164.000000	18.185088
2165.000000	18.159812
2166.000000	18.138145
2167.000000	18.122815
2168.000000	18.101205
2169.000000	18.090394
2170.000000	18.076696
2171.000000	18.068967
2172.000000	18.065153
2173.000000	18.059706
2174.000000	18.053411
2175.000000	18.051995
2176.000000	18.059472
2177.000000	18.074106
2178.000000	18.089042
2179.000000	18.088791
2180.000000	18.108328
2181.000000	18.114300
2182.000000	18.134816
2183.000000	18.152870
2184.000000	18.177853
2185.000000	18.191473
2186.000000	18.217360
2187.000000	18.232146
2188.000000	18.246224
2189.000000	18.266670
2190.000000	18.273762
2191.000000	18.287012
2192.000000	18.292042
2193.000000	18.305677
2194.000000	18.322269
2195.000000	18.342271
2196.000000	18.351200
2197.000000	18.354155
2198.000000	18.368641
2199.000000	18.378830
2200.000000	18.393099
2201.000000	18.402080
2202.000000	18.409606
2203.000000	18.436857
2204.000000	18.455231
2205.000000	18.466586
2206.000000	18.479505
2207.000000	18.503716
2208.000000	18.522431
2209.000000	18.530540
2210.000000	18.571004
2211.000000	18.596230
2212.000000	18.628947
2213.000000	18.649498
2214.000000	18.683824
2215.000000	18.712909
2216.000000	18.736657
2217.000000	18.777988
2218.000000	18.795071
2219.000000	18.823335
2220.000000	18.848145
2221.000000	18.869455
2222.000000	18.891081
2223.000000	18.910739
2224.000000	18.919509
2225.000000	18.922000
2226.000000	18.915719
2227.000000	18.917668
2228.000000	18.894570
2229.000000	18.878792
2230.000000	18.829720
2231.000000	18.805648
2232.000000	18.765595
2233.000000	18.695971
2234.000000	18.649608
2235.000000	18.567277
2236.000000	18.499245
2237.000000	18.401998
2238.000000	18.320484
2239.000000	18.219453
2240.000000	18.083505
2241.000000	17.983661
2242.000000	17.847105
2243.000000	17.702851
2244.000000	17.548290
2245.000000	17.395083
2246.000000	17.230359
2247.000000	17.037748
2248.000000	16.836840
2249.000000	16.620305
2250.000000	16.406916
2251.000000	16.166110
2252.000000	15.911779
2253.000000	15.638739
2254.000000	15.372589
2255.000000	15.103488
2256.000000	14.812594
2257.000000	14.539386
2258.000000	14.246819
2259.000000	13.980967
2260.000000	13.704431
2261.000000	13.462534
2262.000000	13.219789
2263.000000	13.028419
2264.000000	12.835123
2265.000000	12.664547
2266.000000	12.529532
2267.000000	12.407187
2268.000000	12.329052
2269.000000	12.256339
2270.000000	12.220131
2271.000000	12.185619
2272.000000	12.161898
2273.000000	12.157144
2274.000000	12.173863
2275.000000	12.192439
2276.000000	12.230964
2277.000000	12.270681
2278.000000	12.314469
2279.000000	12.360735
2280.000000	12.410695
2281.000000	12.474591
2282.000000	12.521633
2283.000000	12.563581
2284.000000	12.602773
2285.000000	12.640687
2286.000000	12.662359
2287.000000	12.667629
2288.000000	12.681266
2289.000000	12.674292
2290.000000	12.657829
2291.000000	12.613770
2292.000000	12.568921
2293.000000	12.497105
2294.000000	12.413457
2295.000000	12.333833
2296.000000	12.227328
2297.000000	12.132040
2298.000000	12.019238
2299.000000	11.909059
2300.000000	11.809962
2301.000000	11.709004
2302.000000	11.621475
2303.000000	11.553620
2304.000000	11.490194
2305.000000	11.457374
2306.000000	11.432142
2307.000000	11.440237
2308.000000	11.459347
2309.000000	11.490958
2310.000000	11.551774
2311.000000	11.621805
2312.000000	11.714283
2313.000000	11.808718
2314.000000	11.915193
2315.000000	12.032904
2316.000000	12.136521
2317.000000	12.247183
2318.000000	12.363174
2319.000000	12.479163
2320.000000	12.585785
2321.000000	12.697451
2322.000000	12.795170
2323.000000	12.886382
2324.000000	12.978129
2325.000000	13.058934
2326.000000	13.124446
2327.000000	13.183581
2328.000000	13.252935
2329.000000	13.308458
2330.000000	13.355611
2331.000000	13.386324
2332.000000	13.404846
2333.000000	13.442404
2334.000000	13.472663
2335.000000	13.477132
2336.000000	13.486464
2337.000000	13.476751
2338.000000	13.457552
2339.000000	13.432894
2340.000000	13.407543
2341.000000	13.363060
2342.000000	13.306991
2343.000000	13.252781
2344.000000	13.192821
2345.000000	13.128428
2346.000000	13.069308
2347.000000	13.020747
2348.000000	12.969906
2349.000000	12.908093
2350.000000	12.869234
2351.000000	12.839320
2352.000000	12.827683
2353.000000	12.830281
2354.000000	12.833033
2355.000000	12.849138
2356.000000	12.874822
2357.000000	12.915519
2358.000000	12.964551
2359.000000	13.016813
2360.000000	13.077349
2361.000000	13.136250
2362.000000	13.190183
2363.000000	13.251515
2364.000000	13.315018
2365.000000	13.362393
2366.000000	13.399694
2367.000000	13.455347
2368.000000	13.516027
2369.000000	13.550767
2370.000000	13.579597
2371.000000	13.605391
2372.000000	13.625020
2373.000000	13.639593
2374.000000	13.658040
2375.000000	13.686975
2376.000000	13.700953
2377.000000	13.706782
2378.000000	13.719442
2379.000000	13.726494
2380.000000	13.728559
2381.000000	13.737925
2382.000000	13.743406
2383.000000	13.738750
2384.000000	13.731269
2385.000000	13.719811
2386.000000	13.711052
2387.000000	13.706493
2388.000000	13.689242
2389.000000	13.668875
2390.000000	13.650804
2391.000000	13.622638
2392.000000	13.592835
2393.000000	13.563618
2394.000000	13.526467
2395.000000	13.494910
2396.000000	13.461109
2397.000000	13.421686
2398.000000	13.387309
2399.000000	13.353602
2400.000000	13.314994
2401.000000	13.290423
2402.000000	13.259581
2403.000000	13.217854
2404.000000	13.177025
2405.000000	13.156149
2406.000000	13.129413
2407.000000	13.095903
2408.000000	13.078486
2409.000000	13.031437
2410.000000	13.001462
2411.000000	12.973400
2412.000000	12.934283
2413.000000	12.898829
2414.000000	12.875579
2415.000000	12.854175
2416.000000	12.822435
2417.000000	12.792015
2418.000000	12.761011
2419.000000	12.722108
2420.000000	12.690903
2421.000000	12.666414
2422.000000	12.632785
2423.000000	12.596543
2424.000000	12.568672
2425.000000	12.540668
2426.000000	12.509366
2427.000000	12.469771
2428.000000	12.433057
2429.000000	12.407980
2430.000000	12.365629
2431.000000	12.296239
2432.000000	12.241831
2433.000000	12.183830
2434.000000	12.115780
2435.000000	12.053897
2436.000000	11.987007
2437.000000	11.913397
2438.000000	11.846647
2439.000000	11.770913
2440.000000	11.702366
2441.000000	11.640669
2442.000000	11.560786
2443.000000	11.482761
2444.000000	11.396860
2445.000000	11.322857
2446.000000	11.239816
2447.000000	11.148712
2448.000000	11.085628
2449.000000	11.000551
2450.000000	10.932318
2451.000000	10.848041
2452.000000	10.751349
2453.000000	10.681261
2454.000000	10.630675
2455.000000	10.542592
2456.000000	10.467164
2457.000000	10.419950
2458.000000	10.354322
2459.000000	10.286057
2460.000000	10.251098
2461.000000	10.217102
2462.000000	10.175116
2463.000000	10.161597
2464.000000	10.095982
2465.000000	10.071963
2466.000000	10.048590
2467.000000	10.031341
2468.000000	9.996914
2469.000000	10.009533
2470.000000	9.992894
2471.000000	9.959010
2472.000000	9.950734
2473.000000	9.974197
2474.000000	9.943429
2475.000000	9.944613
2476.000000	9.931809
2477.000000	9.939122
2478.000000	9.936216
2479.000000	9.939766
2480.000000	9.898834
2481.000000	9.938150
2482.000000	9.937401
2483.000000	9.923071
2484.000000	9.938111
2485.000000	9.946962
2486.000000	9.921496
2487.000000	9.939571
2488.000000	9.869977
2489.000000	9.945178
2490.000000	9.966326
2491.000000	10.035837
2492.000000	10.044961
2493.000000	10.025608
2494.000000	9.982635
2495.000000	10.095999
2496.000000	10.141769
2497.000000	10.083370
2498.000000	10.111689
2499.000000	10.233410
2500.000000	10.203536
