PE UV       SUBTECH     SPECTRUM    ASCII       PEDS        4.00        
   -1
CICIMAUCR0009-3.Sample.ASC
24/04/17
14:06:27.00
24/04/17
14:06:27.00
Vinicio Soto Monge
C. kalinini
250,000000
1
Lambda 1050
1050L1511233
PerkinElmer UV WinLab 6.3.2.0749 / 2.02.05 Lambda 900 UV/VIS/NIR, Aug  7 2015 09:38:08

0
0
3350/servo 860,8/2
0
0
UV/VIS
1
1
1
DoubleDePol,CommonBeamDepol,RBeamAtt,SBeamAtt,60mm sphere, WB InGaAs Detector
0
0
0
0
Program
Program
3350/servo 860,8/2
3350/0,2 860,8/0,2
3350/0,2 860,8/0,2
0
15.00
 
 
 
0
 
860,8
319,2
860,8
Front
100
on
S:100 R:100
0
0
0
0
 
0
 
 
 
0
 
 
0
0
0
0
0
 
 
 
 
0
0


0
0
#HDR
-1
-1
#GR
nm
%R
1.0
0.0
2500,000000
-1,000000
2251
8
78,444600
4,431300
#DATA
250.000000	5.509600
251.000000	5.488533
252.000000	5.508600
253.000000	5.471700
254.000000	5.464967
255.000000	5.455167
256.000000	5.465167
257.000000	5.430433
258.000000	5.437800
259.000000	5.421267
260.000000	5.404233
261.000000	5.373867
262.000000	5.386267
263.000000	5.344400
264.000000	5.317600
265.000000	5.321367
266.000000	5.285167
267.000000	5.261900
268.000000	5.250233
269.000000	5.227067
270.000000	5.218800
271.000000	5.212167
272.000000	5.195300
273.000000	5.175500
274.000000	5.166467
275.000000	5.165967
276.000000	5.150900
277.000000	5.154933
278.000000	5.145633
279.000000	5.129633
280.000000	5.101133
281.000000	5.130100
282.000000	5.110800
283.000000	5.090467
284.000000	5.104333
285.000000	5.060400
286.000000	5.104967
287.000000	5.074000
288.000000	5.066967
289.000000	5.075467
290.000000	5.050867
291.000000	5.051200
292.000000	5.047533
293.000000	5.030400
294.000000	5.057733
295.000000	5.057100
296.000000	5.019233
297.000000	5.034267
298.000000	5.049833
299.000000	5.012767
300.000000	5.027533
301.000000	5.041400
302.000000	5.014233
303.000000	4.983500
304.000000	4.979167
305.000000	5.005133
306.000000	5.008533
307.000000	5.009500
308.000000	4.996200
309.000000	5.017667
310.000000	5.001633
311.000000	4.995000
312.000000	5.012433
313.000000	5.014667
314.000000	5.005867
315.000000	4.995400
316.000000	5.034867
317.000000	5.292833
318.000000	5.176033
319.000000	5.129900
320.000000	5.240867
321.000000	5.233400
322.000000	5.135400
323.000000	4.994967
324.000000	5.150767
325.000000	5.182833
326.000000	5.247200
327.000000	5.183767
328.000000	5.178100
329.000000	5.217133
330.000000	5.213200
331.000000	5.188833
332.000000	5.276933
333.000000	5.215800
334.000000	5.247167
335.000000	5.224567
336.000000	5.263467
337.000000	5.258067
338.000000	5.250300
339.000000	5.203367
340.000000	5.256300
341.000000	5.216900
342.000000	5.233100
343.000000	5.238467
344.000000	5.292967
345.000000	5.308500
346.000000	5.284333
347.000000	5.315900
348.000000	5.303533
349.000000	5.345700
350.000000	5.314233
351.000000	5.382467
352.000000	5.436300
353.000000	5.522100
354.000000	5.537600
355.000000	5.587567
356.000000	5.604767
357.000000	5.624567
358.000000	5.702267
359.000000	5.712100
360.000000	5.768500
361.000000	5.835667
362.000000	5.834733
363.000000	5.905067
364.000000	5.932233
365.000000	5.957267
366.000000	6.023467
367.000000	6.074233
368.000000	6.136400
369.000000	6.180500
370.000000	6.250433
371.000000	6.318467
372.000000	6.364833
373.000000	6.390767
374.000000	6.434300
375.000000	6.548533
376.000000	6.701800
377.000000	6.770733
378.000000	6.881233
379.000000	7.005033
380.000000	7.142200
381.000000	7.296500
382.000000	7.461433
383.000000	7.639967
384.000000	7.824200
385.000000	8.019967
386.000000	8.234033
387.000000	8.467400
388.000000	8.700967
389.000000	8.955067
390.000000	9.233700
391.000000	9.527400
392.000000	9.823700
393.000000	10.137667
394.000000	10.474800
395.000000	10.824967
396.000000	11.183000
397.000000	11.551733
398.000000	11.929767
399.000000	12.312967
400.000000	12.712300
401.000000	13.116900
402.000000	13.528700
403.000000	13.964300
404.000000	14.390133
405.000000	14.811100
406.000000	15.248600
407.000000	15.674033
408.000000	16.095367
409.000000	16.524967
410.000000	16.941100
411.000000	17.363233
412.000000	17.782567
413.000000	18.186000
414.000000	18.577967
415.000000	18.960967
416.000000	19.340867
417.000000	19.709033
418.000000	20.054967
419.000000	20.392267
420.000000	20.722367
421.000000	21.035233
422.000000	21.339667
423.000000	21.618200
424.000000	21.886233
425.000000	22.153667
426.000000	22.398933
427.000000	22.611800
428.000000	22.819567
429.000000	23.031833
430.000000	23.225067
431.000000	23.401067
432.000000	23.568733
433.000000	23.725400
434.000000	23.866733
435.000000	24.002700
436.000000	24.114700
437.000000	24.221867
438.000000	24.318000
439.000000	24.394767
440.000000	24.478900
441.000000	24.548433
442.000000	24.600667
443.000000	24.648667
444.000000	24.692300
445.000000	24.723867
446.000000	24.752067
447.000000	24.781300
448.000000	24.818167
449.000000	24.859600
450.000000	24.892567
451.000000	24.933267
452.000000	24.989367
453.000000	25.055600
454.000000	25.130133
455.000000	25.213267
456.000000	25.308233
457.000000	25.414467
458.000000	25.544333
459.000000	25.687267
460.000000	25.845100
461.000000	26.018467
462.000000	26.210300
463.000000	26.410267
464.000000	26.623600
465.000000	26.848600
466.000000	27.081800
467.000000	27.318833
468.000000	27.564700
469.000000	27.821933
470.000000	28.078533
471.000000	28.340833
472.000000	28.589167
473.000000	28.832733
474.000000	29.085333
475.000000	29.332633
476.000000	29.563933
477.000000	29.797200
478.000000	30.023967
479.000000	30.247700
480.000000	30.467433
481.000000	30.688500
482.000000	30.896367
483.000000	31.099133
484.000000	31.314667
485.000000	31.532100
486.000000	31.746733
487.000000	31.972433
488.000000	32.202667
489.000000	32.456333
490.000000	32.702767
491.000000	32.979567
492.000000	33.277467
493.000000	33.584900
494.000000	33.889600
495.000000	34.225667
496.000000	34.585800
497.000000	34.936967
498.000000	35.318833
499.000000	35.715400
500.000000	36.130333
501.000000	36.558667
502.000000	36.984167
503.000000	37.456000
504.000000	37.919500
505.000000	38.394133
506.000000	38.881000
507.000000	39.379533
508.000000	39.887100
509.000000	40.395167
510.000000	40.924233
511.000000	41.467900
512.000000	42.035167
513.000000	42.612633
514.000000	43.224033
515.000000	43.825600
516.000000	44.445600
517.000000	45.075367
518.000000	45.725700
519.000000	46.397733
520.000000	47.087567
521.000000	47.776333
522.000000	48.493800
523.000000	49.233000
524.000000	49.979567
525.000000	50.745100
526.000000	51.505000
527.000000	52.276867
528.000000	53.056167
529.000000	53.853600
530.000000	54.634733
531.000000	55.425067
532.000000	56.213167
533.000000	56.994167
534.000000	57.757667
535.000000	58.498733
536.000000	59.220500
537.000000	59.923367
538.000000	60.613233
539.000000	61.253767
540.000000	61.902233
541.000000	62.549567
542.000000	63.161067
543.000000	63.764600
544.000000	64.366333
545.000000	64.935967
546.000000	65.466333
547.000000	65.995400
548.000000	66.505400
549.000000	66.990700
550.000000	67.483367
551.000000	67.913933
552.000000	68.364400
553.000000	68.802333
554.000000	69.201667
555.000000	69.571600
556.000000	69.919167
557.000000	70.226100
558.000000	70.508133
559.000000	70.807333
560.000000	70.988833
561.000000	71.247767
562.000000	71.496167
563.000000	71.740433
564.000000	71.957467
565.000000	72.153600
566.000000	72.343567
567.000000	72.483833
568.000000	72.639533
569.000000	72.781700
570.000000	72.913967
571.000000	73.030600
572.000000	73.145933
573.000000	73.279167
574.000000	73.340800
575.000000	73.399033
576.000000	73.431433
577.000000	73.434467
578.000000	73.427767
579.000000	73.401133
580.000000	73.378533
581.000000	73.343100
582.000000	73.320067
583.000000	73.219300
584.000000	73.141800
585.000000	73.049533
586.000000	72.946533
587.000000	72.783600
588.000000	72.629533
589.000000	72.447767
590.000000	72.237233
591.000000	71.980067
592.000000	71.769367
593.000000	71.533600
594.000000	71.274833
595.000000	71.006867
596.000000	70.738300
597.000000	70.457267
598.000000	70.150100
599.000000	69.871600
600.000000	69.487833
601.000000	69.120567
602.000000	68.732433
603.000000	68.345733
604.000000	67.935767
605.000000	67.521100
606.000000	67.091467
607.000000	66.676400
608.000000	66.221167
609.000000	65.757200
610.000000	65.307233
611.000000	64.822433
612.000000	64.347167
613.000000	63.874433
614.000000	63.370000
615.000000	62.858067
616.000000	62.377267
617.000000	61.899367
618.000000	61.446733
619.000000	60.981067
620.000000	60.522033
621.000000	60.079300
622.000000	59.694033
623.000000	59.344367
624.000000	58.985500
625.000000	58.675933
626.000000	58.379333
627.000000	58.134400
628.000000	57.884833
629.000000	57.721867
630.000000	57.533333
631.000000	57.387900
632.000000	57.263833
633.000000	57.169133
634.000000	57.148767
635.000000	57.112433
636.000000	57.094833
637.000000	57.077267
638.000000	57.116933
639.000000	57.137467
640.000000	57.197533
641.000000	57.249667
642.000000	57.315400
643.000000	57.362867
644.000000	57.449700
645.000000	57.503267
646.000000	57.554067
647.000000	57.643967
648.000000	57.718233
649.000000	57.800267
650.000000	57.886067
651.000000	57.927300
652.000000	58.037700
653.000000	58.108167
654.000000	58.201300
655.000000	58.276667
656.000000	58.351467
657.000000	58.426067
658.000000	58.528433
659.000000	58.600767
660.000000	58.717867
661.000000	58.842000
662.000000	58.967767
663.000000	59.095733
664.000000	59.260167
665.000000	59.422300
666.000000	59.596233
667.000000	59.794700
668.000000	60.015333
669.000000	60.222500
670.000000	60.424533
671.000000	60.704867
672.000000	60.984167
673.000000	61.247933
674.000000	61.558733
675.000000	61.837300
676.000000	62.134400
677.000000	62.478300
678.000000	62.799933
679.000000	63.122133
680.000000	63.454967
681.000000	63.764033
682.000000	64.079967
683.000000	64.383800
684.000000	64.660833
685.000000	64.931233
686.000000	65.194100
687.000000	65.424200
688.000000	65.645233
689.000000	65.861267
690.000000	66.076267
691.000000	66.281067
692.000000	66.467033
693.000000	66.650833
694.000000	66.840067
695.000000	67.017500
696.000000	67.193400
697.000000	67.372200
698.000000	67.535367
699.000000	67.744100
700.000000	67.919467
701.000000	68.144233
702.000000	68.323800
703.000000	68.531733
704.000000	68.763967
705.000000	68.983733
706.000000	69.209967
707.000000	69.476333
708.000000	69.750367
709.000000	70.027000
710.000000	70.324533
711.000000	70.652233
712.000000	70.970433
713.000000	71.307933
714.000000	71.646567
715.000000	72.031067
716.000000	72.464600
717.000000	72.876367
718.000000	73.322633
719.000000	73.812033
720.000000	74.268833
721.000000	74.761867
722.000000	75.260100
723.000000	75.748100
724.000000	76.273600
725.000000	76.808967
726.000000	77.332700
727.000000	77.828767
728.000000	78.290833
729.000000	78.809833
730.000000	79.314500
731.000000	79.764133
732.000000	80.244833
733.000000	80.684633
734.000000	81.110933
735.000000	81.549700
736.000000	81.948600
737.000000	82.293167
738.000000	82.652933
739.000000	82.984000
740.000000	83.329900
741.000000	83.654067
742.000000	83.910267
743.000000	84.152700
744.000000	84.455167
745.000000	84.769267
746.000000	84.982200
747.000000	85.177767
748.000000	85.404267
749.000000	85.616933
750.000000	85.799367
751.000000	85.972333
752.000000	86.181900
753.000000	86.334800
754.000000	86.499333
755.000000	86.684733
756.000000	86.850767
757.000000	86.940800
758.000000	87.097933
759.000000	87.219467
760.000000	87.283433
761.000000	87.447133
762.000000	87.560333
763.000000	87.657800
764.000000	87.758133
765.000000	87.840200
766.000000	87.913733
767.000000	87.946933
768.000000	88.022233
769.000000	88.100700
770.000000	88.148700
771.000000	88.191900
772.000000	88.205800
773.000000	88.235167
774.000000	88.267533
775.000000	88.364500
776.000000	88.400500
777.000000	88.418033
778.000000	88.499733
779.000000	88.584367
780.000000	88.596267
781.000000	88.627000
782.000000	88.649967
783.000000	88.727867
784.000000	88.766133
785.000000	88.870800
786.000000	88.935100
787.000000	88.932367
788.000000	88.956233
789.000000	88.946267
790.000000	88.996700
791.000000	89.063800
792.000000	89.109533
793.000000	89.038367
794.000000	89.114400
795.000000	89.130067
796.000000	89.116367
797.000000	89.162567
798.000000	89.051033
799.000000	89.014000
800.000000	88.976667
801.000000	88.993000
802.000000	88.890300
803.000000	88.782633
804.000000	88.699167
805.000000	88.634733
806.000000	88.531333
807.000000	88.404900
808.000000	88.336300
809.000000	88.294800
810.000000	88.160567
811.000000	88.011367
812.000000	87.700700
813.000000	87.532733
814.000000	87.394033
815.000000	87.173367
816.000000	86.915933
817.000000	86.681633
818.000000	86.435200
819.000000	86.271300
820.000000	86.019033
821.000000	85.668000
822.000000	85.350867
823.000000	85.115333
824.000000	84.766367
825.000000	84.462000
826.000000	84.096600
827.000000	83.787867
828.000000	83.521500
829.000000	83.191767
830.000000	82.790067
831.000000	82.494933
832.000000	82.124233
833.000000	81.806800
834.000000	81.573833
835.000000	81.265300
836.000000	80.790900
837.000000	80.447400
838.000000	80.158867
839.000000	79.779333
840.000000	79.441767
841.000000	79.262933
842.000000	78.763033
843.000000	78.587267
844.000000	78.200833
845.000000	77.989233
846.000000	77.551933
847.000000	77.240900
848.000000	76.840233
849.000000	76.380433
850.000000	76.089400
851.000000	75.692600
852.000000	75.466667
853.000000	75.052200
854.000000	74.985700
855.000000	74.623833
856.000000	74.258700
857.000000	73.887700
858.000000	74.256744
859.000000	73.611485
860.000000	73.578699
861.000000	73.544897
862.000000	73.521936
863.000000	73.463445
864.000000	73.348732
865.000000	73.223852
866.000000	73.111617
867.000000	72.995952
868.000000	72.853488
869.000000	72.739270
870.000000	72.600018
871.000000	72.429047
872.000000	72.318481
873.000000	72.168863
874.000000	72.044110
875.000000	71.891813
876.000000	71.753022
877.000000	71.623002
878.000000	71.496376
879.000000	71.338088
880.000000	71.223042
881.000000	71.071376
882.000000	70.950243
883.000000	70.814681
884.000000	70.681272
885.000000	70.551231
886.000000	70.422678
887.000000	70.274021
888.000000	70.123532
889.000000	70.012034
890.000000	69.871157
891.000000	69.735204
892.000000	69.595415
893.000000	69.435880
894.000000	69.299921
895.000000	69.147462
896.000000	68.995675
897.000000	68.854441
898.000000	68.705348
899.000000	68.558798
900.000000	68.367293
901.000000	68.210586
902.000000	68.071509
903.000000	67.919480
904.000000	67.757257
905.000000	67.627770
906.000000	67.459100
907.000000	67.327456
908.000000	67.206626
909.000000	67.106010
910.000000	66.989498
911.000000	66.856352
912.000000	66.744494
913.000000	66.640215
914.000000	66.540272
915.000000	66.423250
916.000000	66.316629
917.000000	66.214724
918.000000	66.102607
919.000000	65.985642
920.000000	65.862838
921.000000	65.760535
922.000000	65.611159
923.000000	65.495312
924.000000	65.385031
925.000000	65.274611
926.000000	65.166074
927.000000	65.028846
928.000000	64.922146
929.000000	64.818251
930.000000	64.708442
931.000000	64.608078
932.000000	64.495185
933.000000	64.356238
934.000000	64.246159
935.000000	64.114914
936.000000	64.012105
937.000000	63.907633
938.000000	63.795041
939.000000	63.681879
940.000000	63.593716
941.000000	63.505861
942.000000	63.408326
943.000000	63.315422
944.000000	63.240900
945.000000	63.138200
946.000000	63.061416
947.000000	62.989016
948.000000	62.904037
949.000000	62.830124
950.000000	62.746022
951.000000	62.671987
952.000000	62.589078
953.000000	62.514388
954.000000	62.440001
955.000000	62.341624
956.000000	62.237181
957.000000	62.152555
958.000000	62.054726
959.000000	61.964263
960.000000	61.860320
961.000000	61.760878
962.000000	61.668067
963.000000	61.585772
964.000000	61.503129
965.000000	61.420073
966.000000	61.357545
967.000000	61.290097
968.000000	61.230693
969.000000	61.168963
970.000000	61.114087
971.000000	61.037710
972.000000	60.989249
973.000000	60.932596
974.000000	60.864958
975.000000	60.830528
976.000000	60.787211
977.000000	60.733811
978.000000	60.683738
979.000000	60.654879
980.000000	60.611233
981.000000	60.563067
982.000000	60.515029
983.000000	60.489617
984.000000	60.451329
985.000000	60.428089
986.000000	60.396631
987.000000	60.369547
988.000000	60.342925
989.000000	60.318264
990.000000	60.309981
991.000000	60.293651
992.000000	60.284298
993.000000	60.284672
994.000000	60.279028
995.000000	60.274444
996.000000	60.273228
997.000000	60.259288
998.000000	60.250236
999.000000	60.260716
1000.000000	60.262309
1001.000000	60.261394
1002.000000	60.259353
1003.000000	60.266711
1004.000000	60.283999
1005.000000	60.286323
1006.000000	60.286704
1007.000000	60.301612
1008.000000	60.299618
1009.000000	60.310299
1010.000000	60.320597
1011.000000	60.331990
1012.000000	60.355449
1013.000000	60.384892
1014.000000	60.423593
1015.000000	60.484743
1016.000000	60.550755
1017.000000	60.615557
1018.000000	60.693833
1019.000000	60.765931
1020.000000	60.849788
1021.000000	60.943757
1022.000000	61.032936
1023.000000	61.128734
1024.000000	61.229404
1025.000000	61.328221
1026.000000	61.418199
1027.000000	61.520608
1028.000000	61.620542
1029.000000	61.716264
1030.000000	61.803634
1031.000000	61.888835
1032.000000	61.972869
1033.000000	62.057921
1034.000000	62.150718
1035.000000	62.233596
1036.000000	62.314687
1037.000000	62.397378
1038.000000	62.477416
1039.000000	62.547701
1040.000000	62.626629
1041.000000	62.706227
1042.000000	62.774357
1043.000000	62.846733
1044.000000	62.923552
1045.000000	63.009283
1046.000000	63.086568
1047.000000	63.161526
1048.000000	63.248104
1049.000000	63.340894
1050.000000	63.423777
1051.000000	63.505377
1052.000000	63.597814
1053.000000	63.703384
1054.000000	63.803138
1055.000000	63.907691
1056.000000	64.006711
1057.000000	64.108998
1058.000000	64.207985
1059.000000	64.298467
1060.000000	64.394428
1061.000000	64.486718
1062.000000	64.588442
1063.000000	64.692698
1064.000000	64.786604
1065.000000	64.877543
1066.000000	64.977106
1067.000000	65.071801
1068.000000	65.155012
1069.000000	65.246474
1070.000000	65.344291
1071.000000	65.429865
1072.000000	65.512237
1073.000000	65.605757
1074.000000	65.692913
1075.000000	65.780713
1076.000000	65.865139
1077.000000	65.952897
1078.000000	66.035193
1079.000000	66.124085
1080.000000	66.222609
1081.000000	66.313575
1082.000000	66.408489
1083.000000	66.496623
1084.000000	66.585614
1085.000000	66.686723
1086.000000	66.780964
1087.000000	66.882647
1088.000000	66.969827
1089.000000	67.060764
1090.000000	67.146469
1091.000000	67.242073
1092.000000	67.326263
1093.000000	67.410670
1094.000000	67.482346
1095.000000	67.562366
1096.000000	67.641543
1097.000000	67.714260
1098.000000	67.778934
1099.000000	67.843846
1100.000000	67.906445
1101.000000	67.966979
1102.000000	68.018996
1103.000000	68.070562
1104.000000	68.125709
1105.000000	68.172683
1106.000000	68.229580
1107.000000	68.270507
1108.000000	68.310795
1109.000000	68.356129
1110.000000	68.398502
1111.000000	68.441545
1112.000000	68.467454
1113.000000	68.507152
1114.000000	68.550206
1115.000000	68.594420
1116.000000	68.623556
1117.000000	68.652146
1118.000000	68.668811
1119.000000	68.669209
1120.000000	68.668664
1121.000000	68.639999
1122.000000	68.604541
1123.000000	68.548776
1124.000000	68.490885
1125.000000	68.410491
1126.000000	68.333705
1127.000000	68.210049
1128.000000	68.070534
1129.000000	67.906325
1130.000000	67.665973
1131.000000	67.385590
1132.000000	67.069369
1133.000000	66.754325
1134.000000	66.433084
1135.000000	66.001991
1136.000000	65.548576
1137.000000	65.076106
1138.000000	64.624856
1139.000000	64.185813
1140.000000	63.758560
1141.000000	63.367898
1142.000000	62.971019
1143.000000	62.579584
1144.000000	62.250961
1145.000000	61.975690
1146.000000	61.778540
1147.000000	61.676384
1148.000000	61.671494
1149.000000	61.698624
1150.000000	61.745616
1151.000000	61.800431
1152.000000	61.827583
1153.000000	61.811155
1154.000000	61.735348
1155.000000	61.569313
1156.000000	61.343682
1157.000000	61.049196
1158.000000	60.679737
1159.000000	60.302397
1160.000000	59.881208
1161.000000	59.457757
1162.000000	59.029618
1163.000000	58.563364
1164.000000	58.113688
1165.000000	57.661616
1166.000000	57.217010
1167.000000	56.785733
1168.000000	56.347527
1169.000000	55.943611
1170.000000	55.523531
1171.000000	55.101217
1172.000000	54.706141
1173.000000	54.319548
1174.000000	53.946103
1175.000000	53.599207
1176.000000	53.253480
1177.000000	52.860944
1178.000000	52.414734
1179.000000	51.919590
1180.000000	51.349620
1181.000000	50.756031
1182.000000	50.180168
1183.000000	49.662135
1184.000000	49.274140
1185.000000	49.045705
1186.000000	48.945594
1187.000000	48.999012
1188.000000	49.192634
1189.000000	49.549161
1190.000000	50.015237
1191.000000	50.527076
1192.000000	51.086051
1193.000000	51.606561
1194.000000	52.058958
1195.000000	52.417955
1196.000000	52.700384
1197.000000	52.934104
1198.000000	53.093312
1199.000000	53.222934
1200.000000	53.292592
1201.000000	53.352966
1202.000000	53.370812
1203.000000	53.392306
1204.000000	53.402582
1205.000000	53.425376
1206.000000	53.461204
1207.000000	53.521932
1208.000000	53.599172
1209.000000	53.695361
1210.000000	53.794266
1211.000000	53.909305
1212.000000	54.033105
1213.000000	54.158370
1214.000000	54.305083
1215.000000	54.445449
1216.000000	54.594611
1217.000000	54.750230
1218.000000	54.925813
1219.000000	55.096837
1220.000000	55.284363
1221.000000	55.481861
1222.000000	55.694638
1223.000000	55.910884
1224.000000	56.131632
1225.000000	56.356563
1226.000000	56.583282
1227.000000	56.825091
1228.000000	57.053686
1229.000000	57.285029
1230.000000	57.523105
1231.000000	57.757608
1232.000000	57.997775
1233.000000	58.221768
1234.000000	58.449053
1235.000000	58.671120
1236.000000	58.888738
1237.000000	59.107760
1238.000000	59.328114
1239.000000	59.544789
1240.000000	59.745579
1241.000000	59.943680
1242.000000	60.140200
1243.000000	60.337653
1244.000000	60.519907
1245.000000	60.688230
1246.000000	60.845333
1247.000000	60.988653
1248.000000	61.137487
1249.000000	61.267777
1250.000000	61.383958
1251.000000	61.492282
1252.000000	61.594504
1253.000000	61.689448
1254.000000	61.788323
1255.000000	61.887861
1256.000000	61.964180
1257.000000	62.048561
1258.000000	62.137493
1259.000000	62.208903
1260.000000	62.289726
1261.000000	62.364062
1262.000000	62.438868
1263.000000	62.515241
1264.000000	62.585359
1265.000000	62.665049
1266.000000	62.741910
1267.000000	62.825916
1268.000000	62.910146
1269.000000	62.989558
1270.000000	63.069471
1271.000000	63.135482
1272.000000	63.200295
1273.000000	63.279448
1274.000000	63.360571
1275.000000	63.446267
1276.000000	63.527934
1277.000000	63.621363
1278.000000	63.723035
1279.000000	63.823161
1280.000000	63.926210
1281.000000	64.033683
1282.000000	64.144797
1283.000000	64.248671
1284.000000	64.357672
1285.000000	64.462423
1286.000000	64.558967
1287.000000	64.646776
1288.000000	64.731527
1289.000000	64.810057
1290.000000	64.868190
1291.000000	64.927661
1292.000000	64.983163
1293.000000	65.023921
1294.000000	65.061581
1295.000000	65.096839
1296.000000	65.128334
1297.000000	65.152310
1298.000000	65.174401
1299.000000	65.197865
1300.000000	65.222362
1301.000000	65.243978
1302.000000	65.255634
1303.000000	65.262660
1304.000000	65.266026
1305.000000	65.261910
1306.000000	65.244177
1307.000000	65.218772
1308.000000	65.187445
1309.000000	65.148334
1310.000000	65.095579
1311.000000	65.042657
1312.000000	64.987584
1313.000000	64.920578
1314.000000	64.848079
1315.000000	64.760033
1316.000000	64.673314
1317.000000	64.584774
1318.000000	64.486220
1319.000000	64.391037
1320.000000	64.291322
1321.000000	64.171641
1322.000000	64.049025
1323.000000	63.927226
1324.000000	63.805599
1325.000000	63.662186
1326.000000	63.513137
1327.000000	63.353079
1328.000000	63.181525
1329.000000	63.006930
1330.000000	62.819087
1331.000000	62.609938
1332.000000	62.393829
1333.000000	62.159131
1334.000000	61.922910
1335.000000	61.671515
1336.000000	61.405049
1337.000000	61.134832
1338.000000	60.836252
1339.000000	60.523051
1340.000000	60.207060
1341.000000	59.869085
1342.000000	59.501963
1343.000000	59.127238
1344.000000	58.759628
1345.000000	58.314916
1346.000000	57.866955
1347.000000	57.448914
1348.000000	56.953557
1349.000000	56.408903
1350.000000	55.832596
1351.000000	55.175848
1352.000000	54.470082
1353.000000	53.777584
1354.000000	53.118930
1355.000000	52.493480
1356.000000	52.006132
1357.000000	51.686850
1358.000000	51.505736
1359.000000	51.407620
1360.000000	51.368763
1361.000000	51.323976
1362.000000	51.185157
1363.000000	50.992630
1364.000000	50.832279
1365.000000	50.614532
1366.000000	50.376945
1367.000000	50.130470
1368.000000	49.842923
1369.000000	49.478831
1370.000000	49.127603
1371.000000	48.754779
1372.000000	48.324922
1373.000000	47.923153
1374.000000	47.535642
1375.000000	47.258935
1376.000000	47.075218
1377.000000	46.971189
1378.000000	46.896660
1379.000000	46.843440
1380.000000	46.735436
1381.000000	46.662337
1382.000000	46.448557
1383.000000	46.102747
1384.000000	45.745338
1385.000000	45.306733
1386.000000	44.946218
1387.000000	44.644617
1388.000000	44.405921
1389.000000	44.114131
1390.000000	43.901675
1391.000000	43.757299
1392.000000	43.613139
1393.000000	43.458569
1394.000000	43.371971
1395.000000	43.289580
1396.000000	43.100551
1397.000000	42.829342
1398.000000	42.572278
1399.000000	42.407748
1400.000000	42.140734
1401.000000	41.770609
1402.000000	41.297035
1403.000000	40.916733
1404.000000	40.500270
1405.000000	40.135516
1406.000000	39.709586
1407.000000	39.333501
1408.000000	38.964210
1409.000000	38.645787
1410.000000	38.272883
1411.000000	37.977748
1412.000000	37.741266
1413.000000	37.556726
1414.000000	37.363093
1415.000000	37.105315
1416.000000	36.853314
1417.000000	36.621937
1418.000000	36.436156
1419.000000	36.235690
1420.000000	35.975998
1421.000000	35.705141
1422.000000	35.470274
1423.000000	35.242443
1424.000000	35.034793
1425.000000	34.777962
1426.000000	34.541845
1427.000000	34.331978
1428.000000	34.147465
1429.000000	33.948380
1430.000000	33.756326
1431.000000	33.630085
1432.000000	33.480202
1433.000000	33.326955
1434.000000	33.189908
1435.000000	33.021327
1436.000000	32.904933
1437.000000	32.766791
1438.000000	32.636597
1439.000000	32.495674
1440.000000	32.359576
1441.000000	32.219908
1442.000000	32.076860
1443.000000	31.907471
1444.000000	31.779452
1445.000000	31.652664
1446.000000	31.521513
1447.000000	31.348400
1448.000000	31.200549
1449.000000	31.095809
1450.000000	30.981745
1451.000000	30.859348
1452.000000	30.724470
1453.000000	30.583601
1454.000000	30.473215
1455.000000	30.345313
1456.000000	30.223561
1457.000000	30.114183
1458.000000	30.011098
1459.000000	29.902498
1460.000000	29.815526
1461.000000	29.713416
1462.000000	29.629437
1463.000000	29.543362
1464.000000	29.455202
1465.000000	29.397201
1466.000000	29.311970
1467.000000	29.248632
1468.000000	29.181030
1469.000000	29.125011
1470.000000	29.067333
1471.000000	29.025064
1472.000000	28.960476
1473.000000	28.897821
1474.000000	28.813445
1475.000000	28.752931
1476.000000	28.699676
1477.000000	28.648722
1478.000000	28.587471
1479.000000	28.530565
1480.000000	28.498071
1481.000000	28.457474
1482.000000	28.407952
1483.000000	28.351614
1484.000000	28.333833
1485.000000	28.301330
1486.000000	28.277496
1487.000000	28.265715
1488.000000	28.237846
1489.000000	28.204040
1490.000000	28.192221
1491.000000	28.159645
1492.000000	28.142465
1493.000000	28.122744
1494.000000	28.116520
1495.000000	28.108485
1496.000000	28.101403
1497.000000	28.097852
1498.000000	28.100836
1499.000000	28.104718
1500.000000	28.116991
1501.000000	28.138260
1502.000000	28.159942
1503.000000	28.175851
1504.000000	28.191825
1505.000000	28.212066
1506.000000	28.241638
1507.000000	28.269338
1508.000000	28.312089
1509.000000	28.344803
1510.000000	28.357579
1511.000000	28.385483
1512.000000	28.428092
1513.000000	28.456519
1514.000000	28.490782
1515.000000	28.519022
1516.000000	28.549301
1517.000000	28.578812
1518.000000	28.612442
1519.000000	28.639612
1520.000000	28.669843
1521.000000	28.699192
1522.000000	28.725719
1523.000000	28.745378
1524.000000	28.762111
1525.000000	28.786102
1526.000000	28.797210
1527.000000	28.822562
1528.000000	28.843360
1529.000000	28.864291
1530.000000	28.874766
1531.000000	28.878556
1532.000000	28.892307
1533.000000	28.893158
1534.000000	28.902536
1535.000000	28.910724
1536.000000	28.921307
1537.000000	28.919742
1538.000000	28.916166
1539.000000	28.908017
1540.000000	28.907313
1541.000000	28.907801
1542.000000	28.912072
1543.000000	28.910058
1544.000000	28.909805
1545.000000	28.914898
1546.000000	28.924042
1547.000000	28.932888
1548.000000	28.939066
1549.000000	28.946782
1550.000000	28.960394
1551.000000	28.967371
1552.000000	28.978825
1553.000000	28.985456
1554.000000	28.977936
1555.000000	28.968110
1556.000000	28.952591
1557.000000	28.948671
1558.000000	28.933897
1559.000000	28.906751
1560.000000	28.887103
1561.000000	28.864428
1562.000000	28.838016
1563.000000	28.798123
1564.000000	28.752648
1565.000000	28.720062
1566.000000	28.682709
1567.000000	28.634034
1568.000000	28.598056
1569.000000	28.563227
1570.000000	28.522849
1571.000000	28.490722
1572.000000	28.469066
1573.000000	28.451162
1574.000000	28.434654
1575.000000	28.415058
1576.000000	28.396607
1577.000000	28.392997
1578.000000	28.386556
1579.000000	28.383528
1580.000000	28.396921
1581.000000	28.411735
1582.000000	28.421300
1583.000000	28.440373
1584.000000	28.461341
1585.000000	28.483217
1586.000000	28.516258
1587.000000	28.549069
1588.000000	28.574582
1589.000000	28.605685
1590.000000	28.648012
1591.000000	28.689003
1592.000000	28.737652
1593.000000	28.783601
1594.000000	28.828727
1595.000000	28.881473
1596.000000	28.938649
1597.000000	29.002683
1598.000000	29.070440
1599.000000	29.129255
1600.000000	29.189537
1601.000000	29.263070
1602.000000	29.339944
1603.000000	29.411155
1604.000000	29.480527
1605.000000	29.554101
1606.000000	29.624259
1607.000000	29.696722
1608.000000	29.778297
1609.000000	29.844326
1610.000000	29.920567
1611.000000	29.989592
1612.000000	30.062733
1613.000000	30.140556
1614.000000	30.232831
1615.000000	30.304702
1616.000000	30.381891
1617.000000	30.462909
1618.000000	30.542060
1619.000000	30.621341
1620.000000	30.708429
1621.000000	30.798803
1622.000000	30.880556
1623.000000	30.969928
1624.000000	31.053119
1625.000000	31.141032
1626.000000	31.231572
1627.000000	31.327402
1628.000000	31.412490
1629.000000	31.500060
1630.000000	31.575163
1631.000000	31.661960
1632.000000	31.755363
1633.000000	31.845668
1634.000000	31.925511
1635.000000	32.010241
1636.000000	32.077900
1637.000000	32.153429
1638.000000	32.223893
1639.000000	32.298449
1640.000000	32.362807
1641.000000	32.418868
1642.000000	32.489356
1643.000000	32.553578
1644.000000	32.598065
1645.000000	32.675127
1646.000000	32.727186
1647.000000	32.770169
1648.000000	32.815821
1649.000000	32.858818
1650.000000	32.887880
1651.000000	32.916101
1652.000000	32.932312
1653.000000	32.943447
1654.000000	32.962603
1655.000000	32.953813
1656.000000	32.947152
1657.000000	32.923805
1658.000000	32.896679
1659.000000	32.854282
1660.000000	32.811071
1661.000000	32.750111
1662.000000	32.667112
1663.000000	32.572473
1664.000000	32.489891
1665.000000	32.386211
1666.000000	32.257491
1667.000000	32.135673
1668.000000	31.964593
1669.000000	31.780672
1670.000000	31.591935
1671.000000	31.359455
1672.000000	31.089415
1673.000000	30.791385
1674.000000	30.459926
1675.000000	30.076069
1676.000000	29.641778
1677.000000	29.131930
1678.000000	28.573752
1679.000000	27.966873
1680.000000	27.349006
1681.000000	26.782247
1682.000000	26.295846
1683.000000	25.959958
1684.000000	25.747835
1685.000000	25.656893
1686.000000	25.626832
1687.000000	25.621976
1688.000000	25.597142
1689.000000	25.526769
1690.000000	25.413578
1691.000000	25.255003
1692.000000	25.078220
1693.000000	24.927749
1694.000000	24.830586
1695.000000	24.789899
1696.000000	24.810634
1697.000000	24.868203
1698.000000	25.004252
1699.000000	25.150080
1700.000000	25.313045
1701.000000	25.476886
1702.000000	25.613343
1703.000000	25.703822
1704.000000	25.770427
1705.000000	25.842284
1706.000000	25.863045
1707.000000	25.883418
1708.000000	25.897976
1709.000000	25.891366
1710.000000	25.877805
1711.000000	25.832418
1712.000000	25.789630
1713.000000	25.734947
1714.000000	25.641210
1715.000000	25.563004
1716.000000	25.470683
1717.000000	25.378646
1718.000000	25.325738
1719.000000	25.273087
1720.000000	25.219912
1721.000000	25.204018
1722.000000	25.184039
1723.000000	25.157915
1724.000000	25.112024
1725.000000	25.052655
1726.000000	24.990848
1727.000000	24.884113
1728.000000	24.782547
1729.000000	24.657896
1730.000000	24.550977
1731.000000	24.441375
1732.000000	24.375292
1733.000000	24.340686
1734.000000	24.353945
1735.000000	24.420770
1736.000000	24.540852
1737.000000	24.715083
1738.000000	24.937636
1739.000000	25.189336
1740.000000	25.453157
1741.000000	25.728394
1742.000000	25.995866
1743.000000	26.229802
1744.000000	26.442474
1745.000000	26.631029
1746.000000	26.800397
1747.000000	26.934495
1748.000000	27.047599
1749.000000	27.142741
1750.000000	27.209906
1751.000000	27.264657
1752.000000	27.304622
1753.000000	27.331725
1754.000000	27.335360
1755.000000	27.318999
1756.000000	27.281277
1757.000000	27.226521
1758.000000	27.151197
1759.000000	27.087137
1760.000000	27.013088
1761.000000	26.963791
1762.000000	26.922880
1763.000000	26.914034
1764.000000	26.928989
1765.000000	26.986668
1766.000000	27.066531
1767.000000	27.194413
1768.000000	27.306913
1769.000000	27.454655
1770.000000	27.595454
1771.000000	27.734895
1772.000000	27.899185
1773.000000	28.052313
1774.000000	28.205242
1775.000000	28.357271
1776.000000	28.500434
1777.000000	28.626068
1778.000000	28.731402
1779.000000	28.829121
1780.000000	28.924091
1781.000000	29.027215
1782.000000	29.107369
1783.000000	29.195018
1784.000000	29.281207
1785.000000	29.373853
1786.000000	29.458615
1787.000000	29.529505
1788.000000	29.596101
1789.000000	29.669483
1790.000000	29.733517
1791.000000	29.793461
1792.000000	29.854199
1793.000000	29.914303
1794.000000	29.970656
1795.000000	30.023755
1796.000000	30.078248
1797.000000	30.129818
1798.000000	30.171221
1799.000000	30.211222
1800.000000	30.287817
1801.000000	30.356127
1802.000000	30.405510
1803.000000	30.444482
1804.000000	30.478846
1805.000000	30.536843
1806.000000	30.602586
1807.000000	30.652502
1808.000000	30.688330
1809.000000	30.717456
1810.000000	30.762881
1811.000000	30.811624
1812.000000	30.843838
1813.000000	30.866905
1814.000000	30.867407
1815.000000	30.880721
1816.000000	30.889635
1817.000000	30.887716
1818.000000	30.905320
1819.000000	30.939844
1820.000000	30.980818
1821.000000	31.011231
1822.000000	31.014363
1823.000000	31.002183
1824.000000	31.034197
1825.000000	31.091897
1826.000000	31.165664
1827.000000	31.241994
1828.000000	31.327449
1829.000000	31.432614
1830.000000	31.521870
1831.000000	31.604548
1832.000000	31.683597
1833.000000	31.771668
1834.000000	31.875081
1835.000000	31.977341
1836.000000	32.063405
1837.000000	32.134588
1838.000000	32.201474
1839.000000	32.272313
1840.000000	32.341332
1841.000000	32.384461
1842.000000	32.412150
1843.000000	32.424310
1844.000000	32.459347
1845.000000	32.531106
1846.000000	32.631689
1847.000000	32.747707
1848.000000	32.829915
1849.000000	32.890854
1850.000000	32.946472
1851.000000	33.008544
1852.000000	33.072552
1853.000000	33.162968
1854.000000	33.248095
1855.000000	33.298156
1856.000000	33.353668
1857.000000	33.406140
1858.000000	33.436490
1859.000000	33.452453
1860.000000	33.453999
1861.000000	33.434108
1862.000000	33.404421
1863.000000	33.364285
1864.000000	33.340370
1865.000000	33.304400
1866.000000	33.269721
1867.000000	33.234788
1868.000000	33.145674
1869.000000	33.004668
1870.000000	32.851121
1871.000000	32.677089
1872.000000	32.450507
1873.000000	32.194644
1874.000000	31.906814
1875.000000	31.590528
1876.000000	31.250476
1877.000000	30.892755
1878.000000	30.491324
1879.000000	30.084508
1880.000000	29.672226
1881.000000	29.219076
1882.000000	28.776617
1883.000000	28.340297
1884.000000	27.900910
1885.000000	27.476997
1886.000000	27.091489
1887.000000	26.763619
1888.000000	26.469825
1889.000000	26.164583
1890.000000	25.899849
1891.000000	25.606404
1892.000000	25.280139
1893.000000	24.965196
1894.000000	24.688318
1895.000000	24.411151
1896.000000	24.161231
1897.000000	23.910205
1898.000000	23.598371
1899.000000	23.301520
1900.000000	22.987988
1901.000000	22.680133
1902.000000	22.392462
1903.000000	22.123268
1904.000000	21.845636
1905.000000	21.549928
1906.000000	21.226466
1907.000000	20.906709
1908.000000	20.642951
1909.000000	20.410864
1910.000000	20.210526
1911.000000	19.966425
1912.000000	19.742732
1913.000000	19.485241
1914.000000	19.222075
1915.000000	18.971746
1916.000000	18.781318
1917.000000	18.603006
1918.000000	18.407336
1919.000000	18.227562
1920.000000	18.054372
1921.000000	17.859620
1922.000000	17.669170
1923.000000	17.517286
1924.000000	17.372863
1925.000000	17.248100
1926.000000	17.125706
1927.000000	17.002977
1928.000000	16.896547
1929.000000	16.791911
1930.000000	16.699001
1931.000000	16.614628
1932.000000	16.545147
1933.000000	16.480931
1934.000000	16.421772
1935.000000	16.369201
1936.000000	16.341320
1937.000000	16.319254
1938.000000	16.305368
1939.000000	16.290837
1940.000000	16.274930
1941.000000	16.282424
1942.000000	16.291768
1943.000000	16.299377
1944.000000	16.328897
1945.000000	16.364007
1946.000000	16.395867
1947.000000	16.449754
1948.000000	16.508269
1949.000000	16.536932
1950.000000	16.599589
1951.000000	16.645058
1952.000000	16.706129
1953.000000	16.781410
1954.000000	16.836777
1955.000000	16.894876
1956.000000	16.974078
1957.000000	17.033062
1958.000000	17.086093
1959.000000	17.178420
1960.000000	17.240916
1961.000000	17.287295
1962.000000	17.360892
1963.000000	17.424623
1964.000000	17.496658
1965.000000	17.558577
1966.000000	17.618671
1967.000000	17.684759
1968.000000	17.758536
1969.000000	17.807991
1970.000000	17.885661
1971.000000	17.946418
1972.000000	18.021448
1973.000000	18.092963
1974.000000	18.152157
1975.000000	18.230990
1976.000000	18.305288
1977.000000	18.379450
1978.000000	18.451136
1979.000000	18.530122
1980.000000	18.599114
1981.000000	18.670760
1982.000000	18.751724
1983.000000	18.821901
1984.000000	18.880770
1985.000000	18.954793
1986.000000	19.018955
1987.000000	19.090210
1988.000000	19.146730
1989.000000	19.214539
1990.000000	19.278292
1991.000000	19.319331
1992.000000	19.370416
1993.000000	19.421956
1994.000000	19.461749
1995.000000	19.504865
1996.000000	19.530230
1997.000000	19.561405
1998.000000	19.585177
1999.000000	19.607943
2000.000000	19.619991
2001.000000	19.631191
2002.000000	19.643346
2003.000000	19.664258
2004.000000	19.649066
2005.000000	19.648490
2006.000000	19.627628
2007.000000	19.613568
2008.000000	19.587472
2009.000000	19.567056
2010.000000	19.534840
2011.000000	19.490573
2012.000000	19.455944
2013.000000	19.408013
2014.000000	19.354948
2015.000000	19.308958
2016.000000	19.246937
2017.000000	19.173775
2018.000000	19.103961
2019.000000	19.022412
2020.000000	18.949045
2021.000000	18.862049
2022.000000	18.783332
2023.000000	18.693064
2024.000000	18.605112
2025.000000	18.523771
2026.000000	18.429415
2027.000000	18.330531
2028.000000	18.226487
2029.000000	18.119482
2030.000000	18.012084
2031.000000	17.895929
2032.000000	17.776090
2033.000000	17.660855
2034.000000	17.537318
2035.000000	17.393534
2036.000000	17.253001
2037.000000	17.109597
2038.000000	16.969125
2039.000000	16.819441
2040.000000	16.665771
2041.000000	16.504909
2042.000000	16.341636
2043.000000	16.193836
2044.000000	16.039898
2045.000000	15.878272
2046.000000	15.742554
2047.000000	15.607899
2048.000000	15.474048
2049.000000	15.367013
2050.000000	15.264183
2051.000000	15.178040
2052.000000	15.101588
2053.000000	15.033241
2054.000000	14.991919
2055.000000	14.955038
2056.000000	14.924377
2057.000000	14.911379
2058.000000	14.900731
2059.000000	14.909214
2060.000000	14.923429
2061.000000	14.938133
2062.000000	14.958316
2063.000000	14.987403
2064.000000	15.015636
2065.000000	15.047428
2066.000000	15.093137
2067.000000	15.126684
2068.000000	15.164453
2069.000000	15.207326
2070.000000	15.239171
2071.000000	15.276984
2072.000000	15.309356
2073.000000	15.345845
2074.000000	15.385990
2075.000000	15.419847
2076.000000	15.456423
2077.000000	15.494803
2078.000000	15.520204
2079.000000	15.551461
2080.000000	15.578259
2081.000000	15.589693
2082.000000	15.613345
2083.000000	15.640838
2084.000000	15.657077
2085.000000	15.671498
2086.000000	15.692013
2087.000000	15.707406
2088.000000	15.715022
2089.000000	15.734366
2090.000000	15.748689
2091.000000	15.759513
2092.000000	15.771397
2093.000000	15.790228
2094.000000	15.804743
2095.000000	15.820937
2096.000000	15.843061
2097.000000	15.864219
2098.000000	15.895215
2099.000000	15.914919
2100.000000	15.937727
2101.000000	15.961464
2102.000000	15.983056
2103.000000	16.017049
2104.000000	16.046953
2105.000000	16.070559
2106.000000	16.097005
2107.000000	16.129706
2108.000000	16.163472
2109.000000	16.189506
2110.000000	16.207522
2111.000000	16.232146
2112.000000	16.261383
2113.000000	16.286784
2114.000000	16.307803
2115.000000	16.333405
2116.000000	16.355481
2117.000000	16.376414
2118.000000	16.391255
2119.000000	16.402469
2120.000000	16.420799
2121.000000	16.441503
2122.000000	16.452670
2123.000000	16.458853
2124.000000	16.464411
2125.000000	16.460961
2126.000000	16.462391
2127.000000	16.458670
2128.000000	16.443746
2129.000000	16.428356
2130.000000	16.422227
2131.000000	16.410685
2132.000000	16.386272
2133.000000	16.361482
2134.000000	16.352196
2135.000000	16.316825
2136.000000	16.279715
2137.000000	16.249718
2138.000000	16.213315
2139.000000	16.176705
2140.000000	16.142420
2141.000000	16.101926
2142.000000	16.055003
2143.000000	16.013025
2144.000000	15.973329
2145.000000	15.927872
2146.000000	15.879761
2147.000000	15.830683
2148.000000	15.775114
2149.000000	15.721599
2150.000000	15.673920
2151.000000	15.612115
2152.000000	15.560358
2153.000000	15.514467
2154.000000	15.462450
2155.000000	15.411130
2156.000000	15.362334
2157.000000	15.325110
2158.000000	15.280824
2159.000000	15.234433
2160.000000	15.202903
2161.000000	15.160698
2162.000000	15.129082
2163.000000	15.102102
2164.000000	15.071308
2165.000000	15.034938
2166.000000	15.017030
2167.000000	14.996605
2168.000000	14.976479
2169.000000	14.956559
2170.000000	14.938437
2171.000000	14.925525
2172.000000	14.905280
2173.000000	14.900583
2174.000000	14.888192
2175.000000	14.882733
2176.000000	14.879170
2177.000000	14.884373
2178.000000	14.892758
2179.000000	14.900249
2180.000000	14.906275
2181.000000	14.914176
2182.000000	14.930051
2183.000000	14.937577
2184.000000	14.963728
2185.000000	14.969750
2186.000000	14.978616
2187.000000	14.989430
2188.000000	14.996493
2189.000000	15.013827
2190.000000	15.026589
2191.000000	15.037199
2192.000000	15.048792
2193.000000	15.058557
2194.000000	15.068452
2195.000000	15.076861
2196.000000	15.091164
2197.000000	15.094934
2198.000000	15.101909
2199.000000	15.104555
2200.000000	15.127654
2201.000000	15.129962
2202.000000	15.154087
2203.000000	15.167196
2204.000000	15.171862
2205.000000	15.196520
2206.000000	15.216282
2207.000000	15.231713
2208.000000	15.250851
2209.000000	15.281031
2210.000000	15.296126
2211.000000	15.322581
2212.000000	15.365248
2213.000000	15.384443
2214.000000	15.410968
2215.000000	15.446679
2216.000000	15.466805
2217.000000	15.508550
2218.000000	15.526069
2219.000000	15.570256
2220.000000	15.590532
2221.000000	15.615087
2222.000000	15.642998
2223.000000	15.663712
2224.000000	15.658199
2225.000000	15.672526
2226.000000	15.682837
2227.000000	15.677554
2228.000000	15.662701
2229.000000	15.663501
2230.000000	15.619404
2231.000000	15.587602
2232.000000	15.545939
2233.000000	15.512531
2234.000000	15.447512
2235.000000	15.392509
2236.000000	15.330143
2237.000000	15.237611
2238.000000	15.163733
2239.000000	15.055425
2240.000000	14.952424
2241.000000	14.844885
2242.000000	14.730206
2243.000000	14.586018
2244.000000	14.448687
2245.000000	14.303320
2246.000000	14.147218
2247.000000	13.980060
2248.000000	13.783523
2249.000000	13.576910
2250.000000	13.378387
2251.000000	13.164895
2252.000000	12.936704
2253.000000	12.692093
2254.000000	12.425948
2255.000000	12.180571
2256.000000	11.919459
2257.000000	11.666576
2258.000000	11.399805
2259.000000	11.150791
2260.000000	10.922324
2261.000000	10.691585
2262.000000	10.477058
2263.000000	10.297034
2264.000000	10.129508
2265.000000	9.994763
2266.000000	9.856396
2267.000000	9.754835
2268.000000	9.680191
2269.000000	9.610772
2270.000000	9.568079
2271.000000	9.540870
2272.000000	9.532231
2273.000000	9.528713
2274.000000	9.537428
2275.000000	9.551900
2276.000000	9.580024
2277.000000	9.631061
2278.000000	9.668572
2279.000000	9.709325
2280.000000	9.753525
2281.000000	9.794293
2282.000000	9.835637
2283.000000	9.890281
2284.000000	9.934053
2285.000000	9.964810
2286.000000	9.985278
2287.000000	9.999770
2288.000000	10.008692
2289.000000	10.013734
2290.000000	9.998587
2291.000000	9.960025
2292.000000	9.920095
2293.000000	9.870192
2294.000000	9.812702
2295.000000	9.742326
2296.000000	9.657773
2297.000000	9.564911
2298.000000	9.463044
2299.000000	9.375480
2300.000000	9.288693
2301.000000	9.196639
2302.000000	9.124364
2303.000000	9.062917
2304.000000	9.024793
2305.000000	8.986561
2306.000000	8.981542
2307.000000	8.993062
2308.000000	9.021618
2309.000000	9.053547
2310.000000	9.123899
2311.000000	9.202071
2312.000000	9.292351
2313.000000	9.408338
2314.000000	9.510001
2315.000000	9.627365
2316.000000	9.751270
2317.000000	9.878220
2318.000000	10.005046
2319.000000	10.131782
2320.000000	10.260749
2321.000000	10.366637
2322.000000	10.468790
2323.000000	10.575928
2324.000000	10.667190
2325.000000	10.755111
2326.000000	10.846104
2327.000000	10.924933
2328.000000	11.003295
2329.000000	11.070953
2330.000000	11.116277
2331.000000	11.175658
2332.000000	11.226689
2333.000000	11.278989
2334.000000	11.303084
2335.000000	11.315406
2336.000000	11.333750
2337.000000	11.345311
2338.000000	11.344890
2339.000000	11.327993
2340.000000	11.313399
2341.000000	11.292567
2342.000000	11.256974
2343.000000	11.218876
2344.000000	11.177844
2345.000000	11.131042
2346.000000	11.088113
2347.000000	11.050157
2348.000000	11.000091
2349.000000	10.965277
2350.000000	10.944949
2351.000000	10.925353
2352.000000	10.922523
2353.000000	10.936170
2354.000000	10.953628
2355.000000	10.978521
2356.000000	11.020496
2357.000000	11.067778
2358.000000	11.133161
2359.000000	11.204607
2360.000000	11.266476
2361.000000	11.337823
2362.000000	11.409193
2363.000000	11.480075
2364.000000	11.555602
2365.000000	11.620558
2366.000000	11.680599
2367.000000	11.739989
2368.000000	11.796337
2369.000000	11.847585
2370.000000	11.892771
2371.000000	11.931164
2372.000000	11.961308
2373.000000	11.997138
2374.000000	12.035733
2375.000000	12.072440
2376.000000	12.095462
2377.000000	12.115304
2378.000000	12.135554
2379.000000	12.153829
2380.000000	12.173867
2381.000000	12.184621
2382.000000	12.203672
2383.000000	12.213403
2384.000000	12.219759
2385.000000	12.222013
2386.000000	12.223952
2387.000000	12.225144
2388.000000	12.219836
2389.000000	12.203864
2390.000000	12.197926
2391.000000	12.185539
2392.000000	12.171086
2393.000000	12.152369
2394.000000	12.122357
2395.000000	12.100078
2396.000000	12.084219
2397.000000	12.058195
2398.000000	12.031106
2399.000000	11.994497
2400.000000	11.969500
2401.000000	11.956119
2402.000000	11.936870
2403.000000	11.913218
2404.000000	11.883031
2405.000000	11.864017
2406.000000	11.849399
2407.000000	11.824405
2408.000000	11.798137
2409.000000	11.772397
2410.000000	11.760733
2411.000000	11.739148
2412.000000	11.714666
2413.000000	11.690153
2414.000000	11.661533
2415.000000	11.640875
2416.000000	11.610644
2417.000000	11.593212
2418.000000	11.565355
2419.000000	11.532036
2420.000000	11.507314
2421.000000	11.481713
2422.000000	11.461095
2423.000000	11.436473
2424.000000	11.396468
2425.000000	11.367027
2426.000000	11.320982
2427.000000	11.286485
2428.000000	11.233885
2429.000000	11.186532
2430.000000	11.143830
2431.000000	11.081261
2432.000000	11.035806
2433.000000	10.977014
2434.000000	10.917482
2435.000000	10.854633
2436.000000	10.780642
2437.000000	10.707135
2438.000000	10.639057
2439.000000	10.573114
2440.000000	10.513156
2441.000000	10.415899
2442.000000	10.343939
2443.000000	10.264555
2444.000000	10.190053
2445.000000	10.109661
2446.000000	10.042503
2447.000000	9.963202
2448.000000	9.877719
2449.000000	9.799872
2450.000000	9.709316
2451.000000	9.635320
2452.000000	9.556959
2453.000000	9.491883
2454.000000	9.404883
2455.000000	9.338280
2456.000000	9.269442
2457.000000	9.203885
2458.000000	9.159333
2459.000000	9.107133
2460.000000	9.041094
2461.000000	8.987265
2462.000000	8.961542
2463.000000	8.945129
2464.000000	8.912389
2465.000000	8.886924
2466.000000	8.851111
2467.000000	8.827676
2468.000000	8.817575
2469.000000	8.829847
2470.000000	8.831127
2471.000000	8.817294
2472.000000	8.776568
2473.000000	8.804856
2474.000000	8.817634
2475.000000	8.798252
2476.000000	8.772322
2477.000000	8.789336
2478.000000	8.802791
2479.000000	8.794607
2480.000000	8.787532
2481.000000	8.800714
2482.000000	8.796743
2483.000000	8.816271
2484.000000	8.785216
2485.000000	8.815274
2486.000000	8.848177
2487.000000	8.862161
2488.000000	8.856739
2489.000000	8.893375
2490.000000	8.906707
2491.000000	8.917805
2492.000000	8.984038
2493.000000	8.959003
2494.000000	8.994483
2495.000000	9.110462
2496.000000	9.064544
2497.000000	9.094015
2498.000000	9.152317
2499.000000	9.207864
2500.000000	9.208489
