PE UV       SUBTECH     SPECTRUM    ASCII       PEDS        4.00        
   -1
CICIMAUCR0014-5.Sample.ASC
24/04/23
11:16:56.00
24/04/23
11:16:56.00
Vinicio Soto Monge
C. cupreomarginata
250,000000
1
Lambda 1050
1050L1511233
PerkinElmer UV WinLab 6.3.2.0749 / 2.02.05 Lambda 900 UV/VIS/NIR, Aug  7 2015 09:38:08

0
0
3350/servo 860,8/2
0
0
UV/VIS
1
1
1
DoubleDePol,CommonBeamDepol,RBeamAtt,SBeamAtt,60mm sphere, WB InGaAs Detector
0
0
0
0
Program
Program
3350/servo 860,8/2
3350/0,2 860,8/0,2
3350/0,2 860,8/0,2
0
15.00
 
 
 
0
 
860,8
319,2
860,8
Front
100
on
S:100 R:100
0
0
0
0
 
0
 
 
 
0
 
 
0
0
0
0
0
 
 
 
 
0
0


0
0
#HDR
-1
-1
#GR
nm
%R
1.0
0.0
2500,000000
-1,000000
2251
8
75,082300
5,658100
#DATA
250.000000	5.848862
251.000000	5.817841
252.000000	5.824073
253.000000	5.794804
254.000000	5.779006
255.000000	5.761727
256.000000	5.737396
257.000000	5.732072
258.000000	5.694502
259.000000	5.656721
260.000000	5.640452
261.000000	5.638221
262.000000	5.611373
263.000000	5.569428
264.000000	5.541462
265.000000	5.542343
266.000000	5.503355
267.000000	5.479419
268.000000	5.462322
269.000000	5.423560
270.000000	5.421886
271.000000	5.395009
272.000000	5.393654
273.000000	5.366599
274.000000	5.381149
275.000000	5.325873
276.000000	5.322518
277.000000	5.321756
278.000000	5.292437
279.000000	5.305701
280.000000	5.281583
281.000000	5.301266
282.000000	5.280592
283.000000	5.256680
284.000000	5.265269
285.000000	5.236363
286.000000	5.257753
287.000000	5.242474
288.000000	5.245086
289.000000	5.223624
290.000000	5.212252
291.000000	5.225430
292.000000	5.229784
293.000000	5.220652
294.000000	5.204819
295.000000	5.205508
296.000000	5.190120
297.000000	5.188121
298.000000	5.202539
299.000000	5.171092
300.000000	5.155855
301.000000	5.143290
302.000000	5.154694
303.000000	5.168329
304.000000	5.154445
305.000000	5.146192
306.000000	5.131132
307.000000	5.140631
308.000000	5.146022
309.000000	5.124622
310.000000	5.138626
311.000000	5.121004
312.000000	5.119840
313.000000	5.113989
314.000000	5.102622
315.000000	5.098062
316.000000	5.116894
317.000000	5.201534
318.000000	5.171138
319.000000	5.122875
320.000000	5.111808
321.000000	5.048610
322.000000	4.994382
323.000000	5.081178
324.000000	5.111803
325.000000	5.077462
326.000000	5.110072
327.000000	5.133919
328.000000	5.049652
329.000000	5.042510
330.000000	5.051327
331.000000	5.085615
332.000000	5.090973
333.000000	5.098667
334.000000	5.049779
335.000000	5.112703
336.000000	5.051971
337.000000	5.060592
338.000000	5.119154
339.000000	5.064611
340.000000	5.075537
341.000000	5.102203
342.000000	5.111919
343.000000	5.102362
344.000000	5.123776
345.000000	5.130749
346.000000	5.112492
347.000000	5.104554
348.000000	5.120061
349.000000	5.099096
350.000000	5.132963
351.000000	5.154755
352.000000	5.126367
353.000000	5.146400
354.000000	5.162129
355.000000	5.152601
356.000000	5.157393
357.000000	5.191281
358.000000	5.203724
359.000000	5.213174
360.000000	5.232130
361.000000	5.237225
362.000000	5.212899
363.000000	5.193100
364.000000	5.217390
365.000000	5.232020
366.000000	5.254794
367.000000	5.230415
368.000000	5.260761
369.000000	5.271351
370.000000	5.270251
371.000000	5.286752
372.000000	5.293813
373.000000	5.295882
374.000000	5.311715
375.000000	5.332748
376.000000	5.360201
377.000000	5.389886
378.000000	5.408623
379.000000	5.427735
380.000000	5.449757
381.000000	5.469373
382.000000	5.499184
383.000000	5.521810
384.000000	5.546158
385.000000	5.577416
386.000000	5.611909
387.000000	5.654587
388.000000	5.687243
389.000000	5.727693
390.000000	5.772090
391.000000	5.821615
392.000000	5.875689
393.000000	5.932860
394.000000	5.996383
395.000000	6.069644
396.000000	6.146340
397.000000	6.226362
398.000000	6.310919
399.000000	6.399579
400.000000	6.500789
401.000000	6.612432
402.000000	6.727748
403.000000	6.852394
404.000000	6.979919
405.000000	7.114171
406.000000	7.257198
407.000000	7.406245
408.000000	7.571347
409.000000	7.740162
410.000000	7.918824
411.000000	8.102483
412.000000	8.289548
413.000000	8.492077
414.000000	8.696626
415.000000	8.909997
416.000000	9.128685
417.000000	9.340843
418.000000	9.562546
419.000000	9.792446
420.000000	10.031482
421.000000	10.271612
422.000000	10.511068
423.000000	10.754321
424.000000	10.998173
425.000000	11.241838
426.000000	11.493950
427.000000	11.741388
428.000000	11.992711
429.000000	12.244143
430.000000	12.489439
431.000000	12.739394
432.000000	12.991772
433.000000	13.239095
434.000000	13.490834
435.000000	13.739638
436.000000	13.979051
437.000000	14.222621
438.000000	14.466291
439.000000	14.703112
440.000000	14.929081
441.000000	15.154477
442.000000	15.381636
443.000000	15.607391
444.000000	15.820937
445.000000	16.017032
446.000000	16.202756
447.000000	16.389643
448.000000	16.573137
449.000000	16.746581
450.000000	16.922593
451.000000	17.085374
452.000000	17.229119
453.000000	17.370823
454.000000	17.506320
455.000000	17.627429
456.000000	17.742753
457.000000	17.853514
458.000000	17.952630
459.000000	18.039010
460.000000	18.126796
461.000000	18.209514
462.000000	18.281438
463.000000	18.345223
464.000000	18.395544
465.000000	18.446741
466.000000	18.495442
467.000000	18.533316
468.000000	18.577400
469.000000	18.609051
470.000000	18.635956
471.000000	18.669169
472.000000	18.696095
473.000000	18.715073
474.000000	18.739175
475.000000	18.761840
476.000000	18.787717
477.000000	18.817006
478.000000	18.849227
479.000000	18.886822
480.000000	18.944733
481.000000	19.012817
482.000000	19.104782
483.000000	19.204059
484.000000	19.309681
485.000000	19.438443
486.000000	19.582217
487.000000	19.755785
488.000000	19.954183
489.000000	20.168848
490.000000	20.420653
491.000000	20.698920
492.000000	20.993324
493.000000	21.310686
494.000000	21.658076
495.000000	22.023889
496.000000	22.399060
497.000000	22.801409
498.000000	23.213734
499.000000	23.629401
500.000000	24.056378
501.000000	24.496650
502.000000	24.950169
503.000000	25.409508
504.000000	25.881875
505.000000	26.350384
506.000000	26.822169
507.000000	27.295475
508.000000	27.754566
509.000000	28.233117
510.000000	28.714325
511.000000	29.215713
512.000000	29.713447
513.000000	30.216118
514.000000	30.712859
515.000000	31.229114
516.000000	31.741297
517.000000	32.252422
518.000000	32.778714
519.000000	33.317273
520.000000	33.862510
521.000000	34.421523
522.000000	34.997866
523.000000	35.574623
524.000000	36.174751
525.000000	36.783824
526.000000	37.397403
527.000000	38.026104
528.000000	38.672240
529.000000	39.353967
530.000000	40.045287
531.000000	40.761731
532.000000	41.497285
533.000000	42.254119
534.000000	43.022323
535.000000	43.790950
536.000000	44.584166
537.000000	45.379682
538.000000	46.161696
539.000000	46.949592
540.000000	47.739248
541.000000	48.535434
542.000000	49.301077
543.000000	50.066028
544.000000	50.824852
545.000000	51.541218
546.000000	52.248113
547.000000	52.907308
548.000000	53.538823
549.000000	54.151618
550.000000	54.706594
551.000000	55.230576
552.000000	55.731821
553.000000	56.164300
554.000000	56.573468
555.000000	56.951208
556.000000	57.291382
557.000000	57.624470
558.000000	57.908782
559.000000	58.187286
560.000000	58.451099
561.000000	58.687608
562.000000	58.920351
563.000000	59.157699
564.000000	59.341107
565.000000	59.553933
566.000000	59.715639
567.000000	59.867110
568.000000	60.000565
569.000000	60.134258
570.000000	60.225593
571.000000	60.326854
572.000000	60.385279
573.000000	60.409331
574.000000	60.443075
575.000000	60.458994
576.000000	60.465881
577.000000	60.467787
578.000000	60.451492
579.000000	60.436235
580.000000	60.412884
581.000000	60.384570
582.000000	60.357922
583.000000	60.320910
584.000000	60.299460
585.000000	60.234161
586.000000	60.186057
587.000000	60.100498
588.000000	60.022949
589.000000	59.914708
590.000000	59.791179
591.000000	59.653876
592.000000	59.515511
593.000000	59.350098
594.000000	59.195282
595.000000	58.972145
596.000000	58.778030
597.000000	58.594863
598.000000	58.370076
599.000000	58.162690
600.000000	57.941242
601.000000	57.731714
602.000000	57.497070
603.000000	57.277098
604.000000	57.025464
605.000000	56.798112
606.000000	56.566023
607.000000	56.319002
608.000000	56.057677
609.000000	55.787483
610.000000	55.489953
611.000000	55.182815
612.000000	54.865522
613.000000	54.516706
614.000000	54.168535
615.000000	53.798277
616.000000	53.403958
617.000000	53.014749
618.000000	52.597254
619.000000	52.169869
620.000000	51.706235
621.000000	51.248099
622.000000	50.803392
623.000000	50.319592
624.000000	49.808650
625.000000	49.330551
626.000000	48.863799
627.000000	48.365170
628.000000	47.876367
629.000000	47.368108
630.000000	46.884247
631.000000	46.370310
632.000000	45.849748
633.000000	45.341469
634.000000	44.805290
635.000000	44.315563
636.000000	43.770435
637.000000	43.297259
638.000000	42.803926
639.000000	42.339323
640.000000	41.903153
641.000000	41.487135
642.000000	41.074883
643.000000	40.722850
644.000000	40.418614
645.000000	40.142602
646.000000	39.919822
647.000000	39.751622
648.000000	39.623180
649.000000	39.552049
650.000000	39.535384
651.000000	39.564214
652.000000	39.636903
653.000000	39.738169
654.000000	39.855549
655.000000	40.019159
656.000000	40.191889
657.000000	40.389693
658.000000	40.572131
659.000000	40.782042
660.000000	41.014112
661.000000	41.213613
662.000000	41.430510
663.000000	41.616871
664.000000	41.814946
665.000000	41.993970
666.000000	42.182924
667.000000	42.365541
668.000000	42.558477
669.000000	42.758839
670.000000	42.950102
671.000000	43.136238
672.000000	43.319182
673.000000	43.488552
674.000000	43.679944
675.000000	43.875727
676.000000	44.039014
677.000000	44.209300
678.000000	44.367750
679.000000	44.550620
680.000000	44.678894
681.000000	44.836417
682.000000	44.982838
683.000000	45.103044
684.000000	45.193938
685.000000	45.278543
686.000000	45.363451
687.000000	45.423504
688.000000	45.458137
689.000000	45.538216
690.000000	45.600668
691.000000	45.626728
692.000000	45.648564
693.000000	45.717234
694.000000	45.779663
695.000000	45.843223
696.000000	45.911460
697.000000	46.005562
698.000000	46.109679
699.000000	46.202262
700.000000	46.293018
701.000000	46.410125
702.000000	46.551944
703.000000	46.701169
704.000000	46.825048
705.000000	46.954292
706.000000	47.134865
707.000000	47.283800
708.000000	47.412768
709.000000	47.592727
710.000000	47.734471
711.000000	47.907276
712.000000	48.072850
713.000000	48.242132
714.000000	48.426712
715.000000	48.597290
716.000000	48.762629
717.000000	48.946226
718.000000	49.122178
719.000000	49.299688
720.000000	49.487999
721.000000	49.696712
722.000000	49.911875
723.000000	50.118145
724.000000	50.350091
725.000000	50.532884
726.000000	50.736310
727.000000	50.973692
728.000000	51.199620
729.000000	51.409116
730.000000	51.587623
731.000000	51.815845
732.000000	52.052273
733.000000	52.294770
734.000000	52.502964
735.000000	52.710177
736.000000	52.905469
737.000000	53.053357
738.000000	53.252300
739.000000	53.486820
740.000000	53.648138
741.000000	53.792334
742.000000	53.970891
743.000000	54.131649
744.000000	54.294479
745.000000	54.434823
746.000000	54.585841
747.000000	54.741788
748.000000	54.872279
749.000000	55.025222
750.000000	55.204356
751.000000	55.357191
752.000000	55.518537
753.000000	55.655337
754.000000	55.775707
755.000000	55.935830
756.000000	56.082572
757.000000	56.231387
758.000000	56.365976
759.000000	56.529640
760.000000	56.671837
761.000000	56.769413
762.000000	56.895472
763.000000	57.014663
764.000000	57.144612
765.000000	57.281877
766.000000	57.402314
767.000000	57.496511
768.000000	57.596381
769.000000	57.712150
770.000000	57.772611
771.000000	57.878158
772.000000	57.984891
773.000000	58.111461
774.000000	58.197264
775.000000	58.278283
776.000000	58.413343
777.000000	58.497897
778.000000	58.586187
779.000000	58.707107
780.000000	58.803339
781.000000	58.889409
782.000000	58.999961
783.000000	59.075535
784.000000	59.163545
785.000000	59.292630
786.000000	59.397786
787.000000	59.453061
788.000000	59.576058
789.000000	59.684524
790.000000	59.764929
791.000000	59.870492
792.000000	59.961585
793.000000	60.069891
794.000000	60.172864
795.000000	60.308987
796.000000	60.329877
797.000000	60.386603
798.000000	60.513731
799.000000	60.654821
800.000000	60.762475
801.000000	60.847611
802.000000	60.905985
803.000000	61.031638
804.000000	61.148393
805.000000	61.181901
806.000000	61.295014
807.000000	61.449510
808.000000	61.575226
809.000000	61.698329
810.000000	61.844059
811.000000	61.937380
812.000000	61.993277
813.000000	62.174651
814.000000	62.298981
815.000000	62.456329
816.000000	62.574076
817.000000	62.628111
818.000000	62.696300
819.000000	62.836759
820.000000	63.050570
821.000000	63.189581
822.000000	63.321449
823.000000	63.382582
824.000000	63.502039
825.000000	63.649354
826.000000	63.773036
827.000000	63.898729
828.000000	63.991628
829.000000	64.161873
830.000000	64.351895
831.000000	64.438715
832.000000	64.462119
833.000000	64.560311
834.000000	64.752816
835.000000	64.947679
836.000000	65.032737
837.000000	65.107529
838.000000	65.173957
839.000000	65.383642
840.000000	65.367790
841.000000	65.425222
842.000000	65.573739
843.000000	65.673483
844.000000	65.743981
845.000000	65.760507
846.000000	65.903307
847.000000	66.025720
848.000000	66.146207
849.000000	66.125059
850.000000	66.140417
851.000000	66.398731
852.000000	66.532189
853.000000	66.325307
854.000000	66.643641
855.000000	66.337556
856.000000	66.692281
857.000000	66.476167
858.000000	67.203400
859.000000	66.101733
860.000000	66.358567
861.000000	66.636500
862.000000	66.965700
863.000000	67.336700
864.000000	67.655767
865.000000	68.034067
866.000000	68.376767
867.000000	68.740300
868.000000	69.088467
869.000000	69.378300
870.000000	69.683800
871.000000	69.961833
872.000000	70.225533
873.000000	70.432100
874.000000	70.715633
875.000000	70.943433
876.000000	71.218033
877.000000	71.417033
878.000000	71.614467
879.000000	71.821200
880.000000	71.990133
881.000000	72.183267
882.000000	72.315500
883.000000	72.506167
884.000000	72.657500
885.000000	72.750033
886.000000	72.835000
887.000000	72.988433
888.000000	73.084333
889.000000	73.141267
890.000000	73.202133
891.000000	73.296467
892.000000	73.358433
893.000000	73.413867
894.000000	73.448067
895.000000	73.496933
896.000000	73.520300
897.000000	73.542800
898.000000	73.562900
899.000000	73.568100
900.000000	73.591300
901.000000	73.593167
902.000000	73.610200
903.000000	73.616567
904.000000	73.614167
905.000000	73.588933
906.000000	73.599133
907.000000	73.580067
908.000000	73.583333
909.000000	73.608100
910.000000	73.609567
911.000000	73.602100
912.000000	73.622267
913.000000	73.622000
914.000000	73.639067
915.000000	73.670633
916.000000	73.694000
917.000000	73.707800
918.000000	73.692400
919.000000	73.688600
920.000000	73.698467
921.000000	73.677833
922.000000	73.674033
923.000000	73.673033
924.000000	73.652933
925.000000	73.656000
926.000000	73.620833
927.000000	73.588000
928.000000	73.581900
929.000000	73.579533
930.000000	73.539400
931.000000	73.502600
932.000000	73.491533
933.000000	73.435733
934.000000	73.377567
935.000000	73.338900
936.000000	73.300133
937.000000	73.269400
938.000000	73.176300
939.000000	73.137433
940.000000	73.102600
941.000000	73.061333
942.000000	72.993867
943.000000	72.945900
944.000000	72.904500
945.000000	72.850500
946.000000	72.780967
947.000000	72.737100
948.000000	72.643400
949.000000	72.593667
950.000000	72.537233
951.000000	72.454900
952.000000	72.366900
953.000000	72.297833
954.000000	72.203067
955.000000	72.119900
956.000000	72.053300
957.000000	71.953733
958.000000	71.858500
959.000000	71.744100
960.000000	71.659067
961.000000	71.557133
962.000000	71.443633
963.000000	71.335800
964.000000	71.236900
965.000000	71.144133
966.000000	71.040733
967.000000	70.952433
968.000000	70.850200
969.000000	70.766333
970.000000	70.666867
971.000000	70.581500
972.000000	70.480567
973.000000	70.394533
974.000000	70.315867
975.000000	70.220833
976.000000	70.118700
977.000000	70.032600
978.000000	69.956367
979.000000	69.879933
980.000000	69.791233
981.000000	69.707500
982.000000	69.615333
983.000000	69.535400
984.000000	69.451500
985.000000	69.366800
986.000000	69.288533
987.000000	69.208000
988.000000	69.116467
989.000000	69.044567
990.000000	68.955867
991.000000	68.892367
992.000000	68.827167
993.000000	68.764667
994.000000	68.683667
995.000000	68.612633
996.000000	68.564533
997.000000	68.497933
998.000000	68.425133
999.000000	68.363000
1000.000000	68.296200
1001.000000	68.235967
1002.000000	68.187167
1003.000000	68.119033
1004.000000	68.057067
1005.000000	67.996367
1006.000000	67.926800
1007.000000	67.861667
1008.000000	67.789900
1009.000000	67.723200
1010.000000	67.654367
1011.000000	67.590667
1012.000000	67.531500
1013.000000	67.480967
1014.000000	67.440233
1015.000000	67.409133
1016.000000	67.374500
1017.000000	67.343033
1018.000000	67.330600
1019.000000	67.314867
1020.000000	67.302967
1021.000000	67.292400
1022.000000	67.283433
1023.000000	67.282933
1024.000000	67.288300
1025.000000	67.295200
1026.000000	67.302733
1027.000000	67.302633
1028.000000	67.305567
1029.000000	67.312133
1030.000000	67.311267
1031.000000	67.319200
1032.000000	67.329333
1033.000000	67.334833
1034.000000	67.338400
1035.000000	67.330467
1036.000000	67.328367
1037.000000	67.339700
1038.000000	67.341767
1039.000000	67.335500
1040.000000	67.336600
1041.000000	67.340067
1042.000000	67.336433
1043.000000	67.335067
1044.000000	67.346433
1045.000000	67.349567
1046.000000	67.345133
1047.000000	67.348467
1048.000000	67.356567
1049.000000	67.376100
1050.000000	67.392100
1051.000000	67.411233
1052.000000	67.435200
1053.000000	67.464133
1054.000000	67.497433
1055.000000	67.525300
1056.000000	67.561333
1057.000000	67.598633
1058.000000	67.635667
1059.000000	67.673933
1060.000000	67.715233
1061.000000	67.761800
1062.000000	67.812333
1063.000000	67.842000
1064.000000	67.876567
1065.000000	67.913000
1066.000000	67.947400
1067.000000	67.983833
1068.000000	68.018933
1069.000000	68.057733
1070.000000	68.100167
1071.000000	68.147033
1072.000000	68.175700
1073.000000	68.208600
1074.000000	68.245133
1075.000000	68.284900
1076.000000	68.320533
1077.000000	68.356067
1078.000000	68.395433
1079.000000	68.436267
1080.000000	68.475000
1081.000000	68.510867
1082.000000	68.544233
1083.000000	68.589233
1084.000000	68.635200
1085.000000	68.664933
1086.000000	68.710800
1087.000000	68.763533
1088.000000	68.797633
1089.000000	68.832367
1090.000000	68.875533
1091.000000	68.911733
1092.000000	68.944033
1093.000000	68.979967
1094.000000	69.018700
1095.000000	69.050500
1096.000000	69.064533
1097.000000	69.101000
1098.000000	69.122367
1099.000000	69.142000
1100.000000	69.163067
1101.000000	69.179000
1102.000000	69.190833
1103.000000	69.211433
1104.000000	69.224667
1105.000000	69.232900
1106.000000	69.244100
1107.000000	69.251433
1108.000000	69.257833
1109.000000	69.263167
1110.000000	69.275233
1111.000000	69.294167
1112.000000	69.292900
1113.000000	69.303567
1114.000000	69.306900
1115.000000	69.318233
1116.000000	69.326700
1117.000000	69.333200
1118.000000	69.320233
1119.000000	69.312167
1120.000000	69.284833
1121.000000	69.253733
1122.000000	69.225233
1123.000000	69.171933
1124.000000	69.110300
1125.000000	69.027833
1126.000000	68.954967
1127.000000	68.839933
1128.000000	68.728467
1129.000000	68.579700
1130.000000	68.395967
1131.000000	68.153133
1132.000000	67.901100
1133.000000	67.621933
1134.000000	67.366867
1135.000000	67.048200
1136.000000	66.670167
1137.000000	66.281533
1138.000000	65.892133
1139.000000	65.520533
1140.000000	65.169400
1141.000000	64.827267
1142.000000	64.492933
1143.000000	64.160800
1144.000000	63.852200
1145.000000	63.598567
1146.000000	63.394533
1147.000000	63.259833
1148.000000	63.181233
1149.000000	63.154067
1150.000000	63.133533
1151.000000	63.130333
1152.000000	63.110633
1153.000000	63.073300
1154.000000	62.993533
1155.000000	62.857567
1156.000000	62.676567
1157.000000	62.417567
1158.000000	62.151733
1159.000000	61.820333
1160.000000	61.466667
1161.000000	61.129300
1162.000000	60.758033
1163.000000	60.380500
1164.000000	59.997833
1165.000000	59.611467
1166.000000	59.233967
1167.000000	58.847467
1168.000000	58.473400
1169.000000	58.115500
1170.000000	57.752500
1171.000000	57.393333
1172.000000	57.020300
1173.000000	56.694600
1174.000000	56.371400
1175.000000	56.042100
1176.000000	55.730633
1177.000000	55.395300
1178.000000	55.012333
1179.000000	54.577100
1180.000000	54.091033
1181.000000	53.581100
1182.000000	53.063433
1183.000000	52.584633
1184.000000	52.206533
1185.000000	51.948433
1186.000000	51.821433
1187.000000	51.828267
1188.000000	51.955133
1189.000000	52.217233
1190.000000	52.576900
1191.000000	52.997333
1192.000000	53.470133
1193.000000	53.915900
1194.000000	54.306167
1195.000000	54.644133
1196.000000	54.902300
1197.000000	55.114500
1198.000000	55.269500
1199.000000	55.382133
1200.000000	55.477433
1201.000000	55.543467
1202.000000	55.588267
1203.000000	55.627567
1204.000000	55.650300
1205.000000	55.689600
1206.000000	55.756467
1207.000000	55.799933
1208.000000	55.880167
1209.000000	55.973000
1210.000000	56.075767
1211.000000	56.181567
1212.000000	56.304433
1213.000000	56.433733
1214.000000	56.550167
1215.000000	56.681233
1216.000000	56.821067
1217.000000	56.956733
1218.000000	57.105367
1219.000000	57.263033
1220.000000	57.423767
1221.000000	57.577100
1222.000000	57.750500
1223.000000	57.930467
1224.000000	58.103500
1225.000000	58.281967
1226.000000	58.472433
1227.000000	58.661167
1228.000000	58.839400
1229.000000	59.018467
1230.000000	59.196533
1231.000000	59.370000
1232.000000	59.547233
1233.000000	59.721000
1234.000000	59.897433
1235.000000	60.058967
1236.000000	60.223900
1237.000000	60.394500
1238.000000	60.553067
1239.000000	60.699033
1240.000000	60.860133
1241.000000	61.015867
1242.000000	61.163133
1243.000000	61.308333
1244.000000	61.439400
1245.000000	61.569433
1246.000000	61.695333
1247.000000	61.815000
1248.000000	61.928700
1249.000000	62.036167
1250.000000	62.136467
1251.000000	62.223000
1252.000000	62.296133
1253.000000	62.382867
1254.000000	62.466533
1255.000000	62.528533
1256.000000	62.586167
1257.000000	62.652833
1258.000000	62.710733
1259.000000	62.749500
1260.000000	62.796233
1261.000000	62.850500
1262.000000	62.898533
1263.000000	62.946733
1264.000000	62.986900
1265.000000	63.032467
1266.000000	63.071300
1267.000000	63.113733
1268.000000	63.154000
1269.000000	63.187333
1270.000000	63.226800
1271.000000	63.266833
1272.000000	63.294533
1273.000000	63.329133
1274.000000	63.371600
1275.000000	63.414100
1276.000000	63.460467
1277.000000	63.503800
1278.000000	63.554933
1279.000000	63.616700
1280.000000	63.676800
1281.000000	63.740133
1282.000000	63.805667
1283.000000	63.871467
1284.000000	63.939767
1285.000000	64.007267
1286.000000	64.074333
1287.000000	64.136367
1288.000000	64.184500
1289.000000	64.229667
1290.000000	64.271300
1291.000000	64.309400
1292.000000	64.344200
1293.000000	64.365967
1294.000000	64.380733
1295.000000	64.386533
1296.000000	64.399300
1297.000000	64.412267
1298.000000	64.419800
1299.000000	64.420400
1300.000000	64.422233
1301.000000	64.423600
1302.000000	64.412867
1303.000000	64.397367
1304.000000	64.383733
1305.000000	64.362900
1306.000000	64.332933
1307.000000	64.299233
1308.000000	64.258700
1309.000000	64.209833
1310.000000	64.148733
1311.000000	64.086900
1312.000000	64.019833
1313.000000	63.955700
1314.000000	63.882700
1315.000000	63.795433
1316.000000	63.709700
1317.000000	63.619233
1318.000000	63.528233
1319.000000	63.444933
1320.000000	63.338967
1321.000000	63.223233
1322.000000	63.116400
1323.000000	63.004100
1324.000000	62.881733
1325.000000	62.749600
1326.000000	62.605000
1327.000000	62.477000
1328.000000	62.328533
1329.000000	62.169233
1330.000000	62.003767
1331.000000	61.825767
1332.000000	61.644467
1333.000000	61.446900
1334.000000	61.237967
1335.000000	61.018300
1336.000000	60.795700
1337.000000	60.565400
1338.000000	60.325467
1339.000000	60.069000
1340.000000	59.804667
1341.000000	59.529067
1342.000000	59.232433
1343.000000	58.935033
1344.000000	58.621867
1345.000000	58.273167
1346.000000	57.897433
1347.000000	57.568700
1348.000000	57.177400
1349.000000	56.747333
1350.000000	56.296267
1351.000000	55.793367
1352.000000	55.234100
1353.000000	54.643000
1354.000000	54.145433
1355.000000	53.631233
1356.000000	53.185600
1357.000000	52.849033
1358.000000	52.643567
1359.000000	52.510167
1360.000000	52.381000
1361.000000	52.366200
1362.000000	52.262833
1363.000000	52.064833
1364.000000	51.882633
1365.000000	51.692567
1366.000000	51.452267
1367.000000	51.245333
1368.000000	50.980400
1369.000000	50.666000
1370.000000	50.346767
1371.000000	50.011800
1372.000000	49.632600
1373.000000	49.261067
1374.000000	48.890967
1375.000000	48.590033
1376.000000	48.359700
1377.000000	48.199433
1378.000000	48.064633
1379.000000	47.957167
1380.000000	47.816167
1381.000000	47.669267
1382.000000	47.406367
1383.000000	47.049167
1384.000000	46.619300
1385.000000	46.162533
1386.000000	45.684900
1387.000000	45.286667
1388.000000	44.934733
1389.000000	44.529700
1390.000000	44.171600
1391.000000	43.902567
1392.000000	43.647333
1393.000000	43.349267
1394.000000	43.130800
1395.000000	42.953967
1396.000000	42.699967
1397.000000	42.315533
1398.000000	41.983600
1399.000000	41.724467
1400.000000	41.430000
1401.000000	41.060467
1402.000000	40.536633
1403.000000	40.080233
1404.000000	39.666800
1405.000000	39.255167
1406.000000	38.815000
1407.000000	38.394967
1408.000000	37.986667
1409.000000	37.590833
1410.000000	37.189400
1411.000000	36.805167
1412.000000	36.451833
1413.000000	36.213567
1414.000000	35.964733
1415.000000	35.666567
1416.000000	35.352200
1417.000000	35.039233
1418.000000	34.829133
1419.000000	34.580100
1420.000000	34.304467
1421.000000	34.008967
1422.000000	33.713467
1423.000000	33.475867
1424.000000	33.241333
1425.000000	32.985600
1426.000000	32.727367
1427.000000	32.493067
1428.000000	32.284833
1429.000000	32.088200
1430.000000	31.858400
1431.000000	31.689167
1432.000000	31.547367
1433.000000	31.384767
1434.000000	31.223867
1435.000000	31.067200
1436.000000	30.917933
1437.000000	30.777733
1438.000000	30.651967
1439.000000	30.491033
1440.000000	30.353533
1441.000000	30.227433
1442.000000	30.077867
1443.000000	29.946567
1444.000000	29.809067
1445.000000	29.694133
1446.000000	29.581167
1447.000000	29.446667
1448.000000	29.294767
1449.000000	29.165367
1450.000000	29.086367
1451.000000	28.982333
1452.000000	28.872533
1453.000000	28.743300
1454.000000	28.632467
1455.000000	28.541600
1456.000000	28.442467
1457.000000	28.362667
1458.000000	28.268700
1459.000000	28.178133
1460.000000	28.115300
1461.000000	28.049900
1462.000000	27.992000
1463.000000	27.939800
1464.000000	27.871933
1465.000000	27.826367
1466.000000	27.791033
1467.000000	27.745300
1468.000000	27.715533
1469.000000	27.678600
1470.000000	27.661733
1471.000000	27.651667
1472.000000	27.621933
1473.000000	27.591033
1474.000000	27.558500
1475.000000	27.515767
1476.000000	27.494467
1477.000000	27.480567
1478.000000	27.463233
1479.000000	27.443433
1480.000000	27.421933
1481.000000	27.411400
1482.000000	27.397733
1483.000000	27.378400
1484.000000	27.372667
1485.000000	27.368400
1486.000000	27.372467
1487.000000	27.377900
1488.000000	27.383800
1489.000000	27.383833
1490.000000	27.381767
1491.000000	27.384700
1492.000000	27.389033
1493.000000	27.404300
1494.000000	27.404867
1495.000000	27.419933
1496.000000	27.440133
1497.000000	27.470167
1498.000000	27.493700
1499.000000	27.513967
1500.000000	27.540133
1501.000000	27.578633
1502.000000	27.606700
1503.000000	27.648633
1504.000000	27.680667
1505.000000	27.721967
1506.000000	27.771867
1507.000000	27.821300
1508.000000	27.863533
1509.000000	27.907367
1510.000000	27.949600
1511.000000	27.987667
1512.000000	28.033333
1513.000000	28.080667
1514.000000	28.121967
1515.000000	28.166767
1516.000000	28.213833
1517.000000	28.260400
1518.000000	28.291933
1519.000000	28.328800
1520.000000	28.376100
1521.000000	28.416767
1522.000000	28.459367
1523.000000	28.496233
1524.000000	28.537733
1525.000000	28.575167
1526.000000	28.615233
1527.000000	28.652333
1528.000000	28.683567
1529.000000	28.714800
1530.000000	28.743267
1531.000000	28.775400
1532.000000	28.803800
1533.000000	28.828500
1534.000000	28.856433
1535.000000	28.877433
1536.000000	28.898967
1537.000000	28.918133
1538.000000	28.934000
1539.000000	28.951300
1540.000000	28.968933
1541.000000	28.985267
1542.000000	29.000667
1543.000000	29.012733
1544.000000	29.027400
1545.000000	29.056667
1546.000000	29.075800
1547.000000	29.106233
1548.000000	29.139933
1549.000000	29.163800
1550.000000	29.184200
1551.000000	29.211200
1552.000000	29.234733
1553.000000	29.257033
1554.000000	29.282400
1555.000000	29.298400
1556.000000	29.301267
1557.000000	29.310600
1558.000000	29.320267
1559.000000	29.321200
1560.000000	29.329533
1561.000000	29.327467
1562.000000	29.318667
1563.000000	29.311900
1564.000000	29.299833
1565.000000	29.287267
1566.000000	29.275300
1567.000000	29.262967
1568.000000	29.246367
1569.000000	29.238000
1570.000000	29.229267
1571.000000	29.218533
1572.000000	29.222000
1573.000000	29.220900
1574.000000	29.219500
1575.000000	29.229533
1576.000000	29.237867
1577.000000	29.255167
1578.000000	29.276800
1579.000000	29.297867
1580.000000	29.315867
1581.000000	29.337267
1582.000000	29.365800
1583.000000	29.407000
1584.000000	29.454667
1585.000000	29.491333
1586.000000	29.537367
1587.000000	29.589167
1588.000000	29.635167
1589.000000	29.685967
1590.000000	29.742400
1591.000000	29.794467
1592.000000	29.850500
1593.000000	29.908767
1594.000000	29.960800
1595.000000	30.020667
1596.000000	30.089900
1597.000000	30.159300
1598.000000	30.235700
1599.000000	30.316333
1600.000000	30.388133
1601.000000	30.462333
1602.000000	30.533300
1603.000000	30.604433
1604.000000	30.689800
1605.000000	30.772833
1606.000000	30.848733
1607.000000	30.927933
1608.000000	31.008800
1609.000000	31.087300
1610.000000	31.173700
1611.000000	31.250300
1612.000000	31.319633
1613.000000	31.405100
1614.000000	31.491333
1615.000000	31.571300
1616.000000	31.652233
1617.000000	31.740067
1618.000000	31.821767
1619.000000	31.902267
1620.000000	31.979333
1621.000000	32.070200
1622.000000	32.160400
1623.000000	32.245400
1624.000000	32.329233
1625.000000	32.425033
1626.000000	32.513200
1627.000000	32.601067
1628.000000	32.695500
1629.000000	32.791867
1630.000000	32.891967
1631.000000	32.977733
1632.000000	33.065333
1633.000000	33.147300
1634.000000	33.226167
1635.000000	33.310600
1636.000000	33.392200
1637.000000	33.465267
1638.000000	33.534167
1639.000000	33.604933
1640.000000	33.682600
1641.000000	33.751067
1642.000000	33.813933
1643.000000	33.884533
1644.000000	33.930033
1645.000000	33.994167
1646.000000	34.064733
1647.000000	34.121000
1648.000000	34.169567
1649.000000	34.214233
1650.000000	34.255167
1651.000000	34.305767
1652.000000	34.319300
1653.000000	34.347633
1654.000000	34.363900
1655.000000	34.364300
1656.000000	34.369600
1657.000000	34.363933
1658.000000	34.349833
1659.000000	34.328733
1660.000000	34.282367
1661.000000	34.239767
1662.000000	34.182033
1663.000000	34.117767
1664.000000	34.027500
1665.000000	33.941100
1666.000000	33.830367
1667.000000	33.736433
1668.000000	33.565233
1669.000000	33.391267
1670.000000	33.202900
1671.000000	33.001433
1672.000000	32.754467
1673.000000	32.475367
1674.000000	32.158000
1675.000000	31.793400
1676.000000	31.375800
1677.000000	30.917367
1678.000000	30.393067
1679.000000	29.832800
1680.000000	29.247033
1681.000000	28.711067
1682.000000	28.257400
1683.000000	27.904200
1684.000000	27.677267
1685.000000	27.540867
1686.000000	27.495067
1687.000000	27.465833
1688.000000	27.429367
1689.000000	27.352033
1690.000000	27.222333
1691.000000	27.063333
1692.000000	26.888200
1693.000000	26.732000
1694.000000	26.629300
1695.000000	26.565833
1696.000000	26.570867
1697.000000	26.626667
1698.000000	26.741567
1699.000000	26.901800
1700.000000	27.047267
1701.000000	27.220833
1702.000000	27.364167
1703.000000	27.480767
1704.000000	27.573167
1705.000000	27.638733
1706.000000	27.700267
1707.000000	27.726833
1708.000000	27.760733
1709.000000	27.778733
1710.000000	27.773900
1711.000000	27.766667
1712.000000	27.735500
1713.000000	27.671433
1714.000000	27.609033
1715.000000	27.539400
1716.000000	27.470867
1717.000000	27.405467
1718.000000	27.352167
1719.000000	27.295200
1720.000000	27.263667
1721.000000	27.245500
1722.000000	27.218667
1723.000000	27.187067
1724.000000	27.138433
1725.000000	27.078367
1726.000000	26.986867
1727.000000	26.896667
1728.000000	26.781633
1729.000000	26.669733
1730.000000	26.557967
1731.000000	26.446333
1732.000000	26.355000
1733.000000	26.307400
1734.000000	26.312133
1735.000000	26.359033
1736.000000	26.443633
1737.000000	26.554400
1738.000000	26.743467
1739.000000	26.951333
1740.000000	27.166267
1741.000000	27.397667
1742.000000	27.626500
1743.000000	27.836900
1744.000000	28.019167
1745.000000	28.181933
1746.000000	28.321133
1747.000000	28.437433
1748.000000	28.533367
1749.000000	28.611133
1750.000000	28.680633
1751.000000	28.726067
1752.000000	28.762100
1753.000000	28.777567
1754.000000	28.773300
1755.000000	28.772033
1756.000000	28.735867
1757.000000	28.688367
1758.000000	28.633600
1759.000000	28.572867
1760.000000	28.506433
1761.000000	28.444233
1762.000000	28.408900
1763.000000	28.388000
1764.000000	28.404933
1765.000000	28.453500
1766.000000	28.526567
1767.000000	28.623933
1768.000000	28.734233
1769.000000	28.840433
1770.000000	28.968433
1771.000000	29.107900
1772.000000	29.238133
1773.000000	29.375333
1774.000000	29.509900
1775.000000	29.642900
1776.000000	29.759067
1777.000000	29.859733
1778.000000	29.966267
1779.000000	30.064167
1780.000000	30.145700
1781.000000	30.237467
1782.000000	30.316067
1783.000000	30.402733
1784.000000	30.480000
1785.000000	30.568033
1786.000000	30.653433
1787.000000	30.722933
1788.000000	30.785167
1789.000000	30.854233
1790.000000	30.915733
1791.000000	30.979867
1792.000000	31.035233
1793.000000	31.094633
1794.000000	31.150833
1795.000000	31.205467
1796.000000	31.259433
1797.000000	31.306033
1798.000000	31.349567
1799.000000	31.404100
1800.000000	31.474000
1801.000000	31.540167
1802.000000	31.590000
1803.000000	31.629100
1804.000000	31.677900
1805.000000	31.739433
1806.000000	31.810267
1807.000000	31.866433
1808.000000	31.909967
1809.000000	31.940967
1810.000000	31.978900
1811.000000	32.037867
1812.000000	32.082433
1813.000000	32.102633
1814.000000	32.120667
1815.000000	32.140400
1816.000000	32.157267
1817.000000	32.159100
1818.000000	32.171233
1819.000000	32.209800
1820.000000	32.258367
1821.000000	32.295200
1822.000000	32.314800
1823.000000	32.326967
1824.000000	32.356700
1825.000000	32.411433
1826.000000	32.484800
1827.000000	32.556167
1828.000000	32.637900
1829.000000	32.736900
1830.000000	32.820267
1831.000000	32.903200
1832.000000	32.981433
1833.000000	33.050133
1834.000000	33.135233
1835.000000	33.231133
1836.000000	33.309067
1837.000000	33.376800
1838.000000	33.429400
1839.000000	33.477900
1840.000000	33.531967
1841.000000	33.581433
1842.000000	33.607233
1843.000000	33.606600
1844.000000	33.614900
1845.000000	33.665167
1846.000000	33.738533
1847.000000	33.825067
1848.000000	33.895200
1849.000000	33.945133
1850.000000	33.959033
1851.000000	33.975533
1852.000000	33.997533
1853.000000	34.027300
1854.000000	34.079500
1855.000000	34.096000
1856.000000	34.099767
1857.000000	34.105467
1858.000000	34.080467
1859.000000	34.043233
1860.000000	33.987800
1861.000000	33.907900
1862.000000	33.816933
1863.000000	33.711900
1864.000000	33.609367
1865.000000	33.511000
1866.000000	33.393300
1867.000000	33.279033
1868.000000	33.135000
1869.000000	32.930067
1870.000000	32.670600
1871.000000	32.410033
1872.000000	32.110933
1873.000000	31.773000
1874.000000	31.394200
1875.000000	30.991033
1876.000000	30.564367
1877.000000	30.125300
1878.000000	29.657533
1879.000000	29.164933
1880.000000	28.661067
1881.000000	28.147967
1882.000000	27.587667
1883.000000	27.050733
1884.000000	26.507633
1885.000000	25.961967
1886.000000	25.460100
1887.000000	25.001367
1888.000000	24.573767
1889.000000	24.153833
1890.000000	23.766900
1891.000000	23.385167
1892.000000	22.988200
1893.000000	22.582033
1894.000000	22.230133
1895.000000	21.880300
1896.000000	21.560800
1897.000000	21.250333
1898.000000	20.906967
1899.000000	20.578800
1900.000000	20.255400
1901.000000	19.937300
1902.000000	19.643233
1903.000000	19.355800
1904.000000	19.086233
1905.000000	18.810300
1906.000000	18.517167
1907.000000	18.242867
1908.000000	17.982333
1909.000000	17.741100
1910.000000	17.531167
1911.000000	17.324633
1912.000000	17.098433
1913.000000	16.885500
1914.000000	16.687100
1915.000000	16.459367
1916.000000	16.274367
1917.000000	16.100367
1918.000000	15.922400
1919.000000	15.738967
1920.000000	15.606967
1921.000000	15.462033
1922.000000	15.304567
1923.000000	15.171833
1924.000000	15.047967
1925.000000	14.940733
1926.000000	14.819633
1927.000000	14.728000
1928.000000	14.639967
1929.000000	14.554333
1930.000000	14.493067
1931.000000	14.434033
1932.000000	14.377433
1933.000000	14.322467
1934.000000	14.266233
1935.000000	14.245533
1936.000000	14.227533
1937.000000	14.216267
1938.000000	14.202000
1939.000000	14.216433
1940.000000	14.232267
1941.000000	14.242000
1942.000000	14.236633
1943.000000	14.271600
1944.000000	14.297067
1945.000000	14.336167
1946.000000	14.368733
1947.000000	14.420167
1948.000000	14.469333
1949.000000	14.527467
1950.000000	14.571400
1951.000000	14.625267
1952.000000	14.673900
1953.000000	14.729433
1954.000000	14.796033
1955.000000	14.873567
1956.000000	14.939933
1957.000000	15.001167
1958.000000	15.070733
1959.000000	15.158100
1960.000000	15.214767
1961.000000	15.280967
1962.000000	15.352400
1963.000000	15.436467
1964.000000	15.503767
1965.000000	15.555033
1966.000000	15.626167
1967.000000	15.703400
1968.000000	15.766333
1969.000000	15.845600
1970.000000	15.914933
1971.000000	15.996167
1972.000000	16.078867
1973.000000	16.150700
1974.000000	16.227833
1975.000000	16.293833
1976.000000	16.387633
1977.000000	16.460567
1978.000000	16.542400
1979.000000	16.620233
1980.000000	16.708800
1981.000000	16.783000
1982.000000	16.871233
1983.000000	16.951933
1984.000000	17.023700
1985.000000	17.108300
1986.000000	17.180433
1987.000000	17.264200
1988.000000	17.342933
1989.000000	17.411367
1990.000000	17.492667
1991.000000	17.559733
1992.000000	17.621800
1993.000000	17.688100
1994.000000	17.754000
1995.000000	17.813267
1996.000000	17.880700
1997.000000	17.927633
1998.000000	17.987133
1999.000000	18.032133
2000.000000	18.083167
2001.000000	18.126067
2002.000000	18.155733
2003.000000	18.186967
2004.000000	18.225500
2005.000000	18.261500
2006.000000	18.286900
2007.000000	18.309600
2008.000000	18.323267
2009.000000	18.334167
2010.000000	18.345900
2011.000000	18.348333
2012.000000	18.360300
2013.000000	18.357700
2014.000000	18.351667
2015.000000	18.334233
2016.000000	18.321567
2017.000000	18.292000
2018.000000	18.279133
2019.000000	18.245467
2020.000000	18.204267
2021.000000	18.175200
2022.000000	18.152600
2023.000000	18.112433
2024.000000	18.063267
2025.000000	18.021533
2026.000000	17.968433
2027.000000	17.922600
2028.000000	17.862700
2029.000000	17.802200
2030.000000	17.754867
2031.000000	17.688267
2032.000000	17.624067
2033.000000	17.551367
2034.000000	17.469867
2035.000000	17.388700
2036.000000	17.302233
2037.000000	17.224067
2038.000000	17.125800
2039.000000	17.025533
2040.000000	16.923900
2041.000000	16.835367
2042.000000	16.731133
2043.000000	16.629067
2044.000000	16.516833
2045.000000	16.423900
2046.000000	16.325800
2047.000000	16.229567
2048.000000	16.134133
2049.000000	16.049067
2050.000000	15.974067
2051.000000	15.911600
2052.000000	15.849133
2053.000000	15.807600
2054.000000	15.765967
2055.000000	15.730200
2056.000000	15.719233
2057.000000	15.705833
2058.000000	15.696833
2059.000000	15.694300
2060.000000	15.704900
2061.000000	15.715567
2062.000000	15.736700
2063.000000	15.769900
2064.000000	15.795767
2065.000000	15.826433
2066.000000	15.853100
2067.000000	15.883967
2068.000000	15.920467
2069.000000	15.963400
2070.000000	15.996633
2071.000000	16.029567
2072.000000	16.063900
2073.000000	16.106467
2074.000000	16.138833
2075.000000	16.169367
2076.000000	16.206400
2077.000000	16.241133
2078.000000	16.268000
2079.000000	16.297667
2080.000000	16.325000
2081.000000	16.354100
2082.000000	16.382567
2083.000000	16.401867
2084.000000	16.428000
2085.000000	16.451267
2086.000000	16.470167
2087.000000	16.492733
2088.000000	16.515667
2089.000000	16.531267
2090.000000	16.551767
2091.000000	16.575267
2092.000000	16.585167
2093.000000	16.601167
2094.000000	16.619067
2095.000000	16.640700
2096.000000	16.674000
2097.000000	16.695367
2098.000000	16.704467
2099.000000	16.726067
2100.000000	16.760400
2101.000000	16.787200
2102.000000	16.813967
2103.000000	16.841200
2104.000000	16.867000
2105.000000	16.894767
2106.000000	16.924300
2107.000000	16.950633
2108.000000	16.974067
2109.000000	17.000200
2110.000000	17.021367
2111.000000	17.036933
2112.000000	17.065233
2113.000000	17.100833
2114.000000	17.118567
2115.000000	17.141400
2116.000000	17.169000
2117.000000	17.189500
2118.000000	17.208233
2119.000000	17.222533
2120.000000	17.237333
2121.000000	17.260000
2122.000000	17.273133
2123.000000	17.282800
2124.000000	17.293600
2125.000000	17.300467
2126.000000	17.304933
2127.000000	17.306367
2128.000000	17.299333
2129.000000	17.297533
2130.000000	17.298800
2131.000000	17.285700
2132.000000	17.269200
2133.000000	17.252200
2134.000000	17.236833
2135.000000	17.222200
2136.000000	17.205167
2137.000000	17.181600
2138.000000	17.153667
2139.000000	17.122500
2140.000000	17.091567
2141.000000	17.073300
2142.000000	17.044467
2143.000000	17.015067
2144.000000	16.975700
2145.000000	16.937467
2146.000000	16.898467
2147.000000	16.872233
2148.000000	16.839600
2149.000000	16.793500
2150.000000	16.751833
2151.000000	16.705167
2152.000000	16.665867
2153.000000	16.625600
2154.000000	16.593767
2155.000000	16.552400
2156.000000	16.517367
2157.000000	16.477400
2158.000000	16.443400
2159.000000	16.415867
2160.000000	16.390633
2161.000000	16.358667
2162.000000	16.332667
2163.000000	16.309600
2164.000000	16.292600
2165.000000	16.270000
2166.000000	16.250600
2167.000000	16.236833
2168.000000	16.217367
2169.000000	16.207600
2170.000000	16.195400
2171.000000	16.188467
2172.000000	16.185100
2173.000000	16.179967
2174.000000	16.174233
2175.000000	16.172933
2176.000000	16.179767
2177.000000	16.192800
2178.000000	16.206000
2179.000000	16.205700
2180.000000	16.223367
2181.000000	16.228733
2182.000000	16.247133
2183.000000	16.263200
2184.000000	16.285433
2185.000000	16.297533
2186.000000	16.320867
2187.000000	16.334133
2188.000000	16.346700
2189.000000	16.365100
2190.000000	16.371467
2191.000000	16.383300
2192.000000	16.387733
2193.000000	16.400167
2194.000000	16.414967
2195.000000	16.432767
2196.000000	16.440867
2197.000000	16.443667
2198.000000	16.456567
2199.000000	16.465733
2200.000000	16.478833
2201.000000	16.486800
2202.000000	16.493367
2203.000000	16.517733
2204.000000	16.534167
2205.000000	16.544600
2206.000000	16.556267
2207.000000	16.577967
2208.000000	16.594867
2209.000000	16.602100
2210.000000	16.638633
2211.000000	16.661100
2212.000000	16.690533
2213.000000	16.708967
2214.000000	16.739667
2215.000000	16.765633
2216.000000	16.787167
2217.000000	16.824067
2218.000000	16.839633
2219.000000	16.865167
2220.000000	16.887567
2221.000000	16.906733
2222.000000	16.926167
2223.000000	16.944133
2224.000000	16.952067
2225.000000	16.954433
2226.000000	16.949167
2227.000000	16.950733
2228.000000	16.930000
2229.000000	16.916167
2230.000000	16.872633
2231.000000	16.851000
2232.000000	16.815200
2233.000000	16.753333
2234.000000	16.711800
2235.000000	16.637833
2236.000000	16.576967
2237.000000	16.490300
2238.000000	16.417233
2239.000000	16.327167
2240.000000	16.205100
2241.000000	16.115967
2242.000000	15.993667
2243.000000	15.864833
2244.000000	15.726467
2245.000000	15.589300
2246.000000	15.441600
2247.000000	15.269333
2248.000000	15.089567
2249.000000	14.895467
2250.000000	14.703900
2251.000000	14.488833
2252.000000	14.261267
2253.000000	14.016367
2254.000000	13.777767
2255.000000	13.536767
2256.000000	13.276433
2257.000000	13.031467
2258.000000	12.769300
2259.000000	12.530433
2260.000000	12.282900
2261.000000	12.066167
2262.000000	11.848100
2263.000000	11.676467
2264.000000	11.503000
2265.000000	11.350267
2266.000000	11.228900
2267.000000	11.118733
2268.000000	11.048600
2269.000000	10.983500
2270.000000	10.950667
2271.000000	10.919833
2272.000000	10.898300
2273.000000	10.893833
2274.000000	10.908800
2275.000000	10.925433
2276.000000	10.959833
2277.000000	10.995267
2278.000000	11.034600
2279.000000	11.075967
2280.000000	11.120767
2281.000000	11.178033
2282.000000	11.220167
2283.000000	11.257600
2284.000000	11.293000
2285.000000	11.327100
2286.000000	11.346733
2287.000000	11.351333
2288.000000	11.363600
2289.000000	11.357433
2290.000000	11.343100
2291.000000	11.303533
2292.000000	11.263633
2293.000000	11.199300
2294.000000	11.124133
2295.000000	11.052833
2296.000000	10.957700
2297.000000	10.872267
2298.000000	10.770967
2299.000000	10.672367
2300.000000	10.583367
2301.000000	10.492700
2302.000000	10.414267
2303.000000	10.353333
2304.000000	10.296333
2305.000000	10.266767
2306.000000	10.244067
2307.000000	10.251367
2308.000000	10.268367
2309.000000	10.296633
2310.000000	10.351300
2311.000000	10.414400
2312.000000	10.497367
2313.000000	10.582167
2314.000000	10.677767
2315.000000	10.783533
2316.000000	10.876667
2317.000000	10.975967
2318.000000	11.080100
2319.000000	11.184400
2320.000000	11.280233
2321.000000	11.380500
2322.000000	11.468233
2323.000000	11.550133
2324.000000	11.632633
2325.000000	11.705200
2326.000000	11.764133
2327.000000	11.817567
2328.000000	11.879900
2329.000000	11.929667
2330.000000	11.972100
2331.000000	11.999600
2332.000000	12.016367
2333.000000	12.050267
2334.000000	12.077500
2335.000000	12.081733
2336.000000	12.090233
2337.000000	12.081867
2338.000000	12.064767
2339.000000	12.042733
2340.000000	12.020133
2341.000000	11.980633
2342.000000	11.930767
2343.000000	11.882167
2344.000000	11.828500
2345.000000	11.770933
2346.000000	11.717833
2347.000000	11.674133
2348.000000	11.628700
2349.000000	11.573667
2350.000000	11.538733
2351.000000	11.512000
2352.000000	11.501567
2353.000000	11.503767
2354.000000	11.506400
2355.000000	11.521067
2356.000000	11.544067
2357.000000	11.580733
2358.000000	11.624833
2359.000000	11.671833
2360.000000	11.726133
2361.000000	11.779033
2362.000000	11.827733
2363.000000	11.882933
2364.000000	11.939733
2365.000000	11.982467
2366.000000	12.016367
2367.000000	12.066367
2368.000000	12.120867
2369.000000	12.152167
2370.000000	12.178200
2371.000000	12.201667
2372.000000	12.219500
2373.000000	12.232633
2374.000000	12.249267
2375.000000	12.275167
2376.000000	12.287800
2377.000000	12.293233
2378.000000	12.304733
2379.000000	12.311233
2380.000000	12.313400
2381.000000	12.321833
2382.000000	12.326733
2383.000000	12.322800
2384.000000	12.316033
2385.000000	12.306100
2386.000000	12.298533
2387.000000	12.294433
2388.000000	12.279033
2389.000000	12.260800
2390.000000	12.244733
2391.000000	12.219500
2392.000000	12.192900
2393.000000	12.166900
2394.000000	12.133633
2395.000000	12.105400
2396.000000	12.075300
2397.000000	12.040100
2398.000000	12.009400
2399.000000	11.979233
2400.000000	11.944633
2401.000000	11.922467
2402.000000	11.894833
2403.000000	11.857600
2404.000000	11.821067
2405.000000	11.802433
2406.000000	11.778367
2407.000000	11.748267
2408.000000	11.732600
2409.000000	11.690633
2410.000000	11.663733
2411.000000	11.638600
2412.000000	11.603667
2413.000000	11.571833
2414.000000	11.551067
2415.000000	11.531733
2416.000000	11.503233
2417.000000	11.475967
2418.000000	11.448100
2419.000000	11.413133
2420.000000	11.385133
2421.000000	11.363267
2422.000000	11.333233
2423.000000	11.300667
2424.000000	11.275467
2425.000000	11.250500
2426.000000	11.222700
2427.000000	11.187400
2428.000000	11.155167
2429.000000	11.132833
2430.000000	11.094933
2431.000000	11.032767
2432.000000	10.983867
2433.000000	10.931933
2434.000000	10.870800
2435.000000	10.815100
2436.000000	10.755200
2437.000000	10.689200
2438.000000	10.629133
2439.000000	10.561267
2440.000000	10.499700
2441.000000	10.444333
2442.000000	10.372667
2443.000000	10.302500
2444.000000	10.225533
2445.000000	10.158933
2446.000000	10.084500
2447.000000	10.002933
2448.000000	9.946033
2449.000000	9.869700
2450.000000	9.808300
2451.000000	9.732567
2452.000000	9.645700
2453.000000	9.582767
2454.000000	9.537033
2455.000000	9.458100
2456.000000	9.390567
2457.000000	9.347700
2458.000000	9.288867
2459.000000	9.227967
2460.000000	9.195933
2461.000000	9.165767
2462.000000	9.127833
2463.000000	9.115767
2464.000000	9.057433
2465.000000	9.035400
2466.000000	9.014500
2467.000000	8.999000
2468.000000	8.968167
2469.000000	8.979367
2470.000000	8.964367
2471.000000	8.934300
2472.000000	8.926800
2473.000000	8.947800
2474.000000	8.920133
2475.000000	8.921200
2476.000000	8.910000
2477.000000	8.916400
2478.000000	8.914100
2479.000000	8.916933
2480.000000	8.880733
2481.000000	8.915267
2482.000000	8.915233
2483.000000	8.901667
2484.000000	8.915400
2485.000000	8.923300
2486.000000	8.901400
2487.000000	8.916100
2488.000000	8.854600
2489.000000	8.921700
2490.000000	8.940600
2491.000000	9.003067
2492.000000	9.010800
2493.000000	8.993800
2494.000000	8.955533
2495.000000	9.055833
2496.000000	9.098033
2497.000000	9.045533
2498.000000	9.071533
2499.000000	9.180200
2500.000000	9.152433
