PE UV       SUBTECH     SPECTRUM    ASCII       PEDS        4.00        
   -1
CICIMAUCR0004-3.Sample.ASC
24/05/03
16:17:29.00
24/05/03
16:17:29.00
Vinicio Soto Monge
C. kalinini
250,000000
1
Lambda 1050
1050L1511233
PerkinElmer UV WinLab 6.3.2.0749 / 2.02.05 Lambda 900 UV/VIS/NIR, Aug  7 2015 09:38:08

0
0
3350/servo 860,8/2
0
0
UV/VIS
1
1
1
DoubleDePol,CommonBeamDepol,RBeamAtt,SBeamAtt,60mm sphere, WB InGaAs Detector
0
0
0
0
Program
Program
3350/servo 860,8/2
3350/0,2 860,8/0,2
3350/0,2 860,8/0,2
0
15.00
 
 
 
0
 
860,8
319,2
860,8
Front
100
on
S:100 R:100
0
0
0
0
 
0
 
 
 
0
 
 
0
0
0
0
0
 
 
 
 
0
0


0
0
#HDR
-1
-1
#GR
nm
%R
1.0
0.0
2500,000000
-1,000000
2251
8
98,738200
4,896700
#DATA
250.000000	5.606198
251.000000	5.609721
252.000000	5.591249
253.000000	5.600998
254.000000	5.572344
255.000000	5.565670
256.000000	5.573832
257.000000	5.548958
258.000000	5.529052
259.000000	5.504425
260.000000	5.507023
261.000000	5.488452
262.000000	5.484786
263.000000	5.454645
264.000000	5.415897
265.000000	5.390802
266.000000	5.341824
267.000000	5.362424
268.000000	5.340180
269.000000	5.310415
270.000000	5.309323
271.000000	5.281131
272.000000	5.248597
273.000000	5.256041
274.000000	5.267782
275.000000	5.243123
276.000000	5.224633
277.000000	5.245075
278.000000	5.219686
279.000000	5.183568
280.000000	5.211185
281.000000	5.187340
282.000000	5.188325
283.000000	5.199621
284.000000	5.155091
285.000000	5.184892
286.000000	5.129151
287.000000	5.154249
288.000000	5.143706
289.000000	5.100258
290.000000	5.127449
291.000000	5.114664
292.000000	5.111624
293.000000	5.115023
294.000000	5.083611
295.000000	5.115370
296.000000	5.094943
297.000000	5.076454
298.000000	5.066553
299.000000	5.080982
300.000000	5.097032
301.000000	5.078341
302.000000	5.084076
303.000000	5.090132
304.000000	5.063043
305.000000	5.053526
306.000000	5.057704
307.000000	5.067425
308.000000	5.027299
309.000000	5.061282
310.000000	5.012531
311.000000	5.043906
312.000000	5.049313
313.000000	5.042188
314.000000	5.055266
315.000000	5.018395
316.000000	5.088579
317.000000	5.561819
318.000000	5.441531
319.000000	5.085855
320.000000	5.397610
321.000000	5.346132
322.000000	5.207922
323.000000	5.202228
324.000000	5.218738
325.000000	5.082697
326.000000	5.202764
327.000000	5.179696
328.000000	5.118873
329.000000	5.225132
330.000000	5.113318
331.000000	5.138183
332.000000	5.106682
333.000000	5.037544
334.000000	5.225054
335.000000	5.289715
336.000000	5.248595
337.000000	5.149400
338.000000	5.096081
339.000000	5.101209
340.000000	5.256786
341.000000	5.173694
342.000000	5.237435
343.000000	5.019859
344.000000	5.112305
345.000000	5.163462
346.000000	5.080322
347.000000	5.191752
348.000000	5.262671
349.000000	5.383522
350.000000	5.308631
351.000000	5.170058
352.000000	5.252803
353.000000	5.292675
354.000000	5.317268
355.000000	5.328843
356.000000	5.332964
357.000000	5.515387
358.000000	5.419508
359.000000	5.489661
360.000000	5.492749
361.000000	5.563529
362.000000	5.585627
363.000000	5.506896
364.000000	5.610878
365.000000	5.685579
366.000000	5.699196
367.000000	5.716545
368.000000	5.686831
369.000000	5.740161
370.000000	5.798283
371.000000	5.817868
372.000000	5.783685
373.000000	5.877383
374.000000	5.927223
375.000000	6.096453
376.000000	6.370437
377.000000	6.483856
378.000000	6.584069
379.000000	6.699390
380.000000	6.812024
381.000000	6.953006
382.000000	7.091079
383.000000	7.248106
384.000000	7.407295
385.000000	7.579766
386.000000	7.757504
387.000000	7.934923
388.000000	8.119352
389.000000	8.332844
390.000000	8.555810
391.000000	8.782141
392.000000	9.022798
393.000000	9.276929
394.000000	9.532989
395.000000	9.793905
396.000000	10.065961
397.000000	10.342835
398.000000	10.623851
399.000000	10.914014
400.000000	11.221352
401.000000	11.533537
402.000000	11.847675
403.000000	12.168099
404.000000	12.483966
405.000000	12.802773
406.000000	13.121209
407.000000	13.445425
408.000000	13.784199
409.000000	14.117554
410.000000	14.451195
411.000000	14.797677
412.000000	15.129463
413.000000	15.466331
414.000000	15.810950
415.000000	16.143499
416.000000	16.460387
417.000000	16.784883
418.000000	17.106662
419.000000	17.423099
420.000000	17.729771
421.000000	18.049261
422.000000	18.368150
423.000000	18.659703
424.000000	18.945574
425.000000	19.227126
426.000000	19.486067
427.000000	19.750744
428.000000	19.997369
429.000000	20.223274
430.000000	20.463750
431.000000	20.693683
432.000000	20.901761
433.000000	21.098301
434.000000	21.286658
435.000000	21.460140
436.000000	21.637726
437.000000	21.800320
438.000000	21.936609
439.000000	22.053078
440.000000	22.175426
441.000000	22.301674
442.000000	22.394489
443.000000	22.488769
444.000000	22.574719
445.000000	22.648373
446.000000	22.704179
447.000000	22.743484
448.000000	22.791110
449.000000	22.849239
450.000000	22.906258
451.000000	22.953920
452.000000	23.009068
453.000000	23.054195
454.000000	23.105565
455.000000	23.164943
456.000000	23.233960
457.000000	23.303727
458.000000	23.382264
459.000000	23.470258
460.000000	23.564961
461.000000	23.680482
462.000000	23.808294
463.000000	23.934144
464.000000	24.062578
465.000000	24.192957
466.000000	24.321591
467.000000	24.469687
468.000000	24.623542
469.000000	24.779631
470.000000	24.945164
471.000000	25.112277
472.000000	25.272999
473.000000	25.441139
474.000000	25.623525
475.000000	25.803891
476.000000	25.985355
477.000000	26.171200
478.000000	26.359373
479.000000	26.558145
480.000000	26.751253
481.000000	26.957735
482.000000	27.166164
483.000000	27.379275
484.000000	27.601151
485.000000	27.817184
486.000000	28.041670
487.000000	28.277417
488.000000	28.505840
489.000000	28.740190
490.000000	28.998286
491.000000	29.265598
492.000000	29.534801
493.000000	29.811426
494.000000	30.105339
495.000000	30.395142
496.000000	30.704220
497.000000	31.017231
498.000000	31.346997
499.000000	31.704709
500.000000	32.072830
501.000000	32.441946
502.000000	32.817571
503.000000	33.222496
504.000000	33.640681
505.000000	34.088490
506.000000	34.545616
507.000000	35.026565
508.000000	35.523804
509.000000	36.026162
510.000000	36.554474
511.000000	37.126548
512.000000	37.703074
513.000000	38.311592
514.000000	38.948979
515.000000	39.608461
516.000000	40.275598
517.000000	40.953604
518.000000	41.638682
519.000000	42.351302
520.000000	43.088891
521.000000	43.849653
522.000000	44.617538
523.000000	45.375550
524.000000	46.160953
525.000000	46.923051
526.000000	47.698554
527.000000	48.489171
528.000000	49.253145
529.000000	50.033364
530.000000	50.817182
531.000000	51.593237
532.000000	52.372526
533.000000	53.124265
534.000000	53.902203
535.000000	54.668430
536.000000	55.403180
537.000000	56.115108
538.000000	56.812782
539.000000	57.529061
540.000000	58.206323
541.000000	58.867403
542.000000	59.538514
543.000000	60.177289
544.000000	60.783735
545.000000	61.388710
546.000000	61.978008
547.000000	62.545120
548.000000	63.072088
549.000000	63.606066
550.000000	64.116026
551.000000	64.626195
552.000000	65.116376
553.000000	65.598147
554.000000	66.056039
555.000000	66.485174
556.000000	66.883877
557.000000	67.264257
558.000000	67.642020
559.000000	68.007541
560.000000	68.418373
561.000000	68.734604
562.000000	69.023150
563.000000	69.331120
564.000000	69.589802
565.000000	69.815352
566.000000	70.054829
567.000000	70.269793
568.000000	70.469836
569.000000	70.656057
570.000000	70.856635
571.000000	70.997554
572.000000	71.154794
573.000000	71.278426
574.000000	71.382346
575.000000	71.480257
576.000000	71.566443
577.000000	71.627796
578.000000	71.743173
579.000000	71.760457
580.000000	71.782885
581.000000	71.782055
582.000000	71.789073
583.000000	71.753816
584.000000	71.715572
585.000000	71.664907
586.000000	71.527838
587.000000	71.458699
588.000000	71.326299
589.000000	71.136890
590.000000	71.008267
591.000000	70.814299
592.000000	70.546754
593.000000	70.316532
594.000000	70.024354
595.000000	69.714328
596.000000	69.378808
597.000000	69.083894
598.000000	68.723871
599.000000	68.358454
600.000000	67.971916
601.000000	67.605464
602.000000	67.173101
603.000000	66.767392
604.000000	66.292035
605.000000	65.821626
606.000000	65.402702
607.000000	64.929767
608.000000	64.433306
609.000000	63.968991
610.000000	63.472383
611.000000	63.005969
612.000000	62.478589
613.000000	62.010784
614.000000	61.523599
615.000000	61.036140
616.000000	60.604702
617.000000	60.177481
618.000000	59.747669
619.000000	59.395924
620.000000	59.032029
621.000000	58.687153
622.000000	58.426730
623.000000	58.138638
624.000000	57.911667
625.000000	57.732981
626.000000	57.589889
627.000000	57.444786
628.000000	57.351815
629.000000	57.298639
630.000000	57.238367
631.000000	57.239955
632.000000	57.267560
633.000000	57.274763
634.000000	57.368061
635.000000	57.441165
636.000000	57.508918
637.000000	57.652882
638.000000	57.799195
639.000000	57.933212
640.000000	58.104711
641.000000	58.269255
642.000000	58.466607
643.000000	58.642729
644.000000	58.840064
645.000000	59.010682
646.000000	59.220196
647.000000	59.383623
648.000000	59.585657
649.000000	59.743104
650.000000	59.913839
651.000000	60.069066
652.000000	60.214271
653.000000	60.368084
654.000000	60.517864
655.000000	60.655324
656.000000	60.817948
657.000000	60.975685
658.000000	61.113549
659.000000	61.276902
660.000000	61.429851
661.000000	61.593375
662.000000	61.759696
663.000000	61.935949
664.000000	62.079652
665.000000	62.248552
666.000000	62.457914
667.000000	62.638856
668.000000	62.855322
669.000000	63.019739
670.000000	63.230565
671.000000	63.459190
672.000000	63.673188
673.000000	63.887751
674.000000	64.127355
675.000000	64.382829
676.000000	64.638196
677.000000	64.891093
678.000000	65.138224
679.000000	65.393525
680.000000	65.664830
681.000000	65.923875
682.000000	66.198181
683.000000	66.487595
684.000000	66.747554
685.000000	67.021136
686.000000	67.267435
687.000000	67.538558
688.000000	67.819029
689.000000	68.081123
690.000000	68.321748
691.000000	68.563682
692.000000	68.831797
693.000000	69.099470
694.000000	69.365861
695.000000	69.604819
696.000000	69.823162
697.000000	70.052039
698.000000	70.275404
699.000000	70.521251
700.000000	70.782212
701.000000	71.052851
702.000000	71.294619
703.000000	71.548746
704.000000	71.806493
705.000000	72.100487
706.000000	72.398836
707.000000	72.690785
708.000000	73.016453
709.000000	73.326226
710.000000	73.649722
711.000000	73.988603
712.000000	74.338130
713.000000	74.707959
714.000000	75.082406
715.000000	75.474322
716.000000	75.868355
717.000000	76.275961
718.000000	76.698405
719.000000	77.134512
720.000000	77.532444
721.000000	77.983091
722.000000	78.397955
723.000000	78.783127
724.000000	79.218366
725.000000	79.684971
726.000000	80.078226
727.000000	80.489671
728.000000	80.859603
729.000000	81.190460
730.000000	81.584934
731.000000	81.947763
732.000000	82.278807
733.000000	82.584364
734.000000	82.876457
735.000000	83.164004
736.000000	83.434553
737.000000	83.690405
738.000000	83.952457
739.000000	84.151154
740.000000	84.376577
741.000000	84.602053
742.000000	84.756347
743.000000	84.964131
744.000000	85.162812
745.000000	85.335666
746.000000	85.514959
747.000000	85.685675
748.000000	85.853300
749.000000	85.965429
750.000000	86.099213
751.000000	86.197034
752.000000	86.284196
753.000000	86.334832
754.000000	86.396485
755.000000	86.566502
756.000000	86.649488
757.000000	86.731497
758.000000	86.825090
759.000000	86.883187
760.000000	86.978675
761.000000	87.024612
762.000000	87.053752
763.000000	87.121181
764.000000	87.176772
765.000000	87.187431
766.000000	87.237713
767.000000	87.345851
768.000000	87.362724
769.000000	87.314112
770.000000	87.377809
771.000000	87.418688
772.000000	87.440255
773.000000	87.418019
774.000000	87.406668
775.000000	87.464258
776.000000	87.468820
777.000000	87.386146
778.000000	87.414597
779.000000	87.418671
780.000000	87.422842
781.000000	87.411471
782.000000	87.339535
783.000000	87.303224
784.000000	87.342925
785.000000	87.338938
786.000000	87.242622
787.000000	87.172644
788.000000	87.088292
789.000000	87.069524
790.000000	86.944913
791.000000	86.910374
792.000000	86.796528
793.000000	86.685865
794.000000	86.556628
795.000000	86.473907
796.000000	86.327912
797.000000	86.207819
798.000000	86.062248
799.000000	85.833881
800.000000	85.610108
801.000000	85.439433
802.000000	85.219806
803.000000	85.028214
804.000000	84.830939
805.000000	84.530947
806.000000	84.266012
807.000000	84.039306
808.000000	83.733258
809.000000	83.438059
810.000000	83.135293
811.000000	82.860613
812.000000	82.550920
813.000000	82.241139
814.000000	81.955955
815.000000	81.497561
816.000000	81.197134
817.000000	80.826925
818.000000	80.419514
819.000000	79.971332
820.000000	79.745151
821.000000	79.371596
822.000000	78.964301
823.000000	78.641849
824.000000	78.142618
825.000000	77.839999
826.000000	77.419625
827.000000	77.033490
828.000000	76.618610
829.000000	76.100499
830.000000	75.869429
831.000000	75.467823
832.000000	75.118482
833.000000	74.744584
834.000000	74.395806
835.000000	74.095406
836.000000	73.832338
837.000000	73.378998
838.000000	73.232510
839.000000	72.758817
840.000000	72.278356
841.000000	72.014691
842.000000	71.619249
843.000000	71.317260
844.000000	71.172876
845.000000	70.912635
846.000000	70.474422
847.000000	70.170326
848.000000	69.884550
849.000000	69.375642
850.000000	69.183560
851.000000	68.918503
852.000000	68.925407
853.000000	68.537260
854.000000	68.141341
855.000000	67.813061
856.000000	67.429552
857.000000	67.642447
858.000000	68.828833
859.000000	67.552800
860.000000	67.276867
861.000000	67.015867
862.000000	66.772200
863.000000	66.515500
864.000000	66.278200
865.000000	66.028433
866.000000	65.789733
867.000000	65.557833
868.000000	65.316333
869.000000	65.084900
870.000000	64.842833
871.000000	64.633100
872.000000	64.470400
873.000000	64.526000
874.000000	64.709233
875.000000	64.921700
876.000000	65.042100
877.000000	65.177700
878.000000	65.313500
879.000000	65.377200
880.000000	65.421467
881.000000	65.461367
882.000000	65.471867
883.000000	65.499133
884.000000	65.489100
885.000000	65.490467
886.000000	65.476833
887.000000	65.475867
888.000000	65.466700
889.000000	65.419933
890.000000	65.402900
891.000000	65.375867
892.000000	65.315833
893.000000	65.262400
894.000000	65.249400
895.000000	65.182600
896.000000	65.117900
897.000000	65.023033
898.000000	65.022900
899.000000	64.966400
900.000000	64.875067
901.000000	64.785533
902.000000	64.701033
903.000000	64.628300
904.000000	64.537533
905.000000	64.473867
906.000000	64.398833
907.000000	64.361400
908.000000	64.282133
909.000000	64.218300
910.000000	64.160567
911.000000	64.099633
912.000000	64.036200
913.000000	63.981400
914.000000	63.926400
915.000000	63.892900
916.000000	63.822067
917.000000	63.771933
918.000000	63.728267
919.000000	63.672233
920.000000	63.567233
921.000000	63.480200
922.000000	63.409067
923.000000	63.346467
924.000000	63.272700
925.000000	63.197500
926.000000	63.142767
927.000000	63.084533
928.000000	62.954700
929.000000	62.887233
930.000000	62.817933
931.000000	62.712433
932.000000	62.615733
933.000000	62.533433
934.000000	62.450867
935.000000	62.375533
936.000000	62.241300
937.000000	62.173567
938.000000	62.085633
939.000000	62.015333
940.000000	61.938300
941.000000	61.833533
942.000000	61.765433
943.000000	61.698933
944.000000	61.634533
945.000000	61.539000
946.000000	61.482067
947.000000	61.422767
948.000000	61.332733
949.000000	61.281600
950.000000	61.222733
951.000000	61.168733
952.000000	61.123433
953.000000	61.067500
954.000000	60.984533
955.000000	60.930100
956.000000	60.869367
957.000000	60.821633
958.000000	60.766300
959.000000	60.691200
960.000000	60.619600
961.000000	60.567067
962.000000	60.504467
963.000000	60.440533
964.000000	60.398767
965.000000	60.343367
966.000000	60.295133
967.000000	60.256400
968.000000	60.216100
969.000000	60.175100
970.000000	60.142600
971.000000	60.115333
972.000000	60.087300
973.000000	60.050167
974.000000	60.015567
975.000000	59.981567
976.000000	59.960233
977.000000	59.926533
978.000000	59.893533
979.000000	59.852533
980.000000	59.838600
981.000000	59.802233
982.000000	59.766867
983.000000	59.745767
984.000000	59.711067
985.000000	59.670867
986.000000	59.638367
987.000000	59.614867
988.000000	59.594633
989.000000	59.566667
990.000000	59.548400
991.000000	59.525600
992.000000	59.516067
993.000000	59.497833
994.000000	59.491000
995.000000	59.476333
996.000000	59.469700
997.000000	59.477133
998.000000	59.476367
999.000000	59.482133
1000.000000	59.480400
1001.000000	59.475333
1002.000000	59.495433
1003.000000	59.512733
1004.000000	59.518467
1005.000000	59.524733
1006.000000	59.529400
1007.000000	59.542133
1008.000000	59.559433
1009.000000	59.570767
1010.000000	59.591100
1011.000000	59.618500
1012.000000	59.639667
1013.000000	59.670133
1014.000000	59.710633
1015.000000	59.759467
1016.000000	59.820600
1017.000000	59.878300
1018.000000	59.932700
1019.000000	60.007267
1020.000000	60.094133
1021.000000	60.174567
1022.000000	60.251500
1023.000000	60.333800
1024.000000	60.422100
1025.000000	60.506567
1026.000000	60.595367
1027.000000	60.689533
1028.000000	60.780700
1029.000000	60.852200
1030.000000	60.934467
1031.000000	61.028167
1032.000000	61.099133
1033.000000	61.183167
1034.000000	61.270933
1035.000000	61.340100
1036.000000	61.416967
1037.000000	61.493333
1038.000000	61.565533
1039.000000	61.637400
1040.000000	61.699133
1041.000000	61.758300
1042.000000	61.825767
1043.000000	61.903767
1044.000000	61.964600
1045.000000	62.029700
1046.000000	62.108567
1047.000000	62.177667
1048.000000	62.241533
1049.000000	62.310900
1050.000000	62.388600
1051.000000	62.465100
1052.000000	62.538033
1053.000000	62.625333
1054.000000	62.715633
1055.000000	62.791867
1056.000000	62.879600
1057.000000	62.977267
1058.000000	63.061767
1059.000000	63.145833
1060.000000	63.236400
1061.000000	63.320833
1062.000000	63.411267
1063.000000	63.496500
1064.000000	63.578533
1065.000000	63.668667
1066.000000	63.753467
1067.000000	63.835000
1068.000000	63.923567
1069.000000	64.012800
1070.000000	64.094733
1071.000000	64.183233
1072.000000	64.262667
1073.000000	64.353767
1074.000000	64.448233
1075.000000	64.534600
1076.000000	64.622500
1077.000000	64.704867
1078.000000	64.793633
1079.000000	64.885633
1080.000000	64.976567
1081.000000	65.066400
1082.000000	65.148567
1083.000000	65.245233
1084.000000	65.341200
1085.000000	65.440967
1086.000000	65.524867
1087.000000	65.626600
1088.000000	65.723033
1089.000000	65.810633
1090.000000	65.897333
1091.000000	65.981433
1092.000000	66.072200
1093.000000	66.159000
1094.000000	66.241400
1095.000000	66.313933
1096.000000	66.392867
1097.000000	66.471567
1098.000000	66.536233
1099.000000	66.603300
1100.000000	66.661200
1101.000000	66.731300
1102.000000	66.796533
1103.000000	66.849733
1104.000000	66.899367
1105.000000	66.938533
1106.000000	66.990000
1107.000000	67.049533
1108.000000	67.088533
1109.000000	67.133700
1110.000000	67.180533
1111.000000	67.217267
1112.000000	67.253000
1113.000000	67.293233
1114.000000	67.335967
1115.000000	67.367867
1116.000000	67.406400
1117.000000	67.445067
1118.000000	67.469133
1119.000000	67.473667
1120.000000	67.479833
1121.000000	67.471633
1122.000000	67.461100
1123.000000	67.428000
1124.000000	67.381900
1125.000000	67.324467
1126.000000	67.265200
1127.000000	67.183267
1128.000000	67.094967
1129.000000	66.956133
1130.000000	66.792300
1131.000000	66.570800
1132.000000	66.319067
1133.000000	66.064233
1134.000000	65.815400
1135.000000	65.483133
1136.000000	65.118733
1137.000000	64.733233
1138.000000	64.355367
1139.000000	63.991600
1140.000000	63.635000
1141.000000	63.288100
1142.000000	62.946833
1143.000000	62.647900
1144.000000	62.338233
1145.000000	62.072700
1146.000000	61.888367
1147.000000	61.770067
1148.000000	61.723400
1149.000000	61.737167
1150.000000	61.777067
1151.000000	61.816067
1152.000000	61.861400
1153.000000	61.866533
1154.000000	61.822900
1155.000000	61.746300
1156.000000	61.591300
1157.000000	61.373133
1158.000000	61.109833
1159.000000	60.798833
1160.000000	60.466333
1161.000000	60.106867
1162.000000	59.751033
1163.000000	59.376700
1164.000000	59.008567
1165.000000	58.616333
1166.000000	58.233733
1167.000000	57.855433
1168.000000	57.486500
1169.000000	57.129233
1170.000000	56.787200
1171.000000	56.422733
1172.000000	56.077267
1173.000000	55.740967
1174.000000	55.432200
1175.000000	55.132700
1176.000000	54.840300
1177.000000	54.528133
1178.000000	54.178433
1179.000000	53.779333
1180.000000	53.338800
1181.000000	52.836967
1182.000000	52.343167
1183.000000	51.865400
1184.000000	51.482133
1185.000000	51.197867
1186.000000	51.051933
1187.000000	51.031367
1188.000000	51.143133
1189.000000	51.386367
1190.000000	51.736200
1191.000000	52.159533
1192.000000	52.636433
1193.000000	53.113667
1194.000000	53.530733
1195.000000	53.897667
1196.000000	54.200600
1197.000000	54.429833
1198.000000	54.622267
1199.000000	54.747033
1200.000000	54.855733
1201.000000	54.920167
1202.000000	54.971267
1203.000000	55.002200
1204.000000	55.029933
1205.000000	55.055067
1206.000000	55.086567
1207.000000	55.129967
1208.000000	55.192033
1209.000000	55.265267
1210.000000	55.365567
1211.000000	55.451400
1212.000000	55.573000
1213.000000	55.692267
1214.000000	55.812400
1215.000000	55.934600
1216.000000	56.059833
1217.000000	56.194167
1218.000000	56.341167
1219.000000	56.484533
1220.000000	56.656067
1221.000000	56.825733
1222.000000	57.009567
1223.000000	57.195133
1224.000000	57.397833
1225.000000	57.588500
1226.000000	57.792900
1227.000000	57.997533
1228.000000	58.201833
1229.000000	58.411167
1230.000000	58.632300
1231.000000	58.838967
1232.000000	59.040367
1233.000000	59.240500
1234.000000	59.458167
1235.000000	59.663067
1236.000000	59.870533
1237.000000	60.069800
1238.000000	60.265167
1239.000000	60.455400
1240.000000	60.636067
1241.000000	60.824300
1242.000000	61.006767
1243.000000	61.179833
1244.000000	61.341300
1245.000000	61.520067
1246.000000	61.678233
1247.000000	61.817000
1248.000000	61.935867
1249.000000	62.058633
1250.000000	62.185267
1251.000000	62.285000
1252.000000	62.391267
1253.000000	62.476100
1254.000000	62.560800
1255.000000	62.649667
1256.000000	62.721200
1257.000000	62.787933
1258.000000	62.865333
1259.000000	62.938933
1260.000000	63.000900
1261.000000	63.061867
1262.000000	63.121967
1263.000000	63.173767
1264.000000	63.233067
1265.000000	63.293300
1266.000000	63.367567
1267.000000	63.437033
1268.000000	63.504000
1269.000000	63.564800
1270.000000	63.620067
1271.000000	63.679800
1272.000000	63.738667
1273.000000	63.801633
1274.000000	63.864167
1275.000000	63.933167
1276.000000	64.006100
1277.000000	64.085867
1278.000000	64.163167
1279.000000	64.253900
1280.000000	64.353867
1281.000000	64.446333
1282.000000	64.542367
1283.000000	64.639733
1284.000000	64.727800
1285.000000	64.824400
1286.000000	64.922133
1287.000000	65.011133
1288.000000	65.085100
1289.000000	65.159833
1290.000000	65.233467
1291.000000	65.295600
1292.000000	65.359167
1293.000000	65.402867
1294.000000	65.437200
1295.000000	65.476533
1296.000000	65.507700
1297.000000	65.536733
1298.000000	65.570733
1299.000000	65.600567
1300.000000	65.626633
1301.000000	65.647067
1302.000000	65.668667
1303.000000	65.679900
1304.000000	65.689700
1305.000000	65.695733
1306.000000	65.692033
1307.000000	65.683567
1308.000000	65.669967
1309.000000	65.646667
1310.000000	65.613400
1311.000000	65.575233
1312.000000	65.525600
1313.000000	65.472533
1314.000000	65.427833
1315.000000	65.374100
1316.000000	65.303567
1317.000000	65.234567
1318.000000	65.156100
1319.000000	65.076100
1320.000000	65.002067
1321.000000	64.920733
1322.000000	64.825333
1323.000000	64.725033
1324.000000	64.618600
1325.000000	64.508433
1326.000000	64.387900
1327.000000	64.251300
1328.000000	64.111133
1329.000000	63.970367
1330.000000	63.823133
1331.000000	63.656367
1332.000000	63.470033
1333.000000	63.281533
1334.000000	63.086933
1335.000000	62.873000
1336.000000	62.655233
1337.000000	62.420200
1338.000000	62.165167
1339.000000	61.896100
1340.000000	61.614767
1341.000000	61.327167
1342.000000	61.016367
1343.000000	60.696700
1344.000000	60.360400
1345.000000	59.985533
1346.000000	59.586467
1347.000000	59.202967
1348.000000	58.781400
1349.000000	58.308200
1350.000000	57.804433
1351.000000	57.258300
1352.000000	56.639467
1353.000000	55.976467
1354.000000	55.424400
1355.000000	54.871067
1356.000000	54.348900
1357.000000	53.959067
1358.000000	53.733567
1359.000000	53.610367
1360.000000	53.524600
1361.000000	53.510833
1362.000000	53.430233
1363.000000	53.281100
1364.000000	53.109700
1365.000000	52.952567
1366.000000	52.738367
1367.000000	52.537300
1368.000000	52.305600
1369.000000	52.006600
1370.000000	51.695800
1371.000000	51.374667
1372.000000	50.999433
1373.000000	50.632367
1374.000000	50.287867
1375.000000	49.995900
1376.000000	49.789733
1377.000000	49.662867
1378.000000	49.566000
1379.000000	49.538467
1380.000000	49.492233
1381.000000	49.432300
1382.000000	49.290967
1383.000000	49.053867
1384.000000	48.710667
1385.000000	48.382567
1386.000000	48.010700
1387.000000	47.693833
1388.000000	47.426667
1389.000000	47.174033
1390.000000	46.917300
1391.000000	46.761667
1392.000000	46.608700
1393.000000	46.450800
1394.000000	46.322900
1395.000000	46.257367
1396.000000	46.131300
1397.000000	45.889767
1398.000000	45.655267
1399.000000	45.474733
1400.000000	45.280367
1401.000000	44.960200
1402.000000	44.551233
1403.000000	44.159600
1404.000000	43.762067
1405.000000	43.384800
1406.000000	43.000667
1407.000000	42.608567
1408.000000	42.247067
1409.000000	41.881233
1410.000000	41.537400
1411.000000	41.186933
1412.000000	40.887467
1413.000000	40.678133
1414.000000	40.479700
1415.000000	40.251633
1416.000000	39.972667
1417.000000	39.707833
1418.000000	39.477000
1419.000000	39.269367
1420.000000	39.028867
1421.000000	38.750233
1422.000000	38.485467
1423.000000	38.252533
1424.000000	38.007867
1425.000000	37.738767
1426.000000	37.497933
1427.000000	37.235033
1428.000000	37.025933
1429.000000	36.817300
1430.000000	36.611533
1431.000000	36.420867
1432.000000	36.265867
1433.000000	36.103333
1434.000000	35.935867
1435.000000	35.785533
1436.000000	35.622033
1437.000000	35.468833
1438.000000	35.346267
1439.000000	35.182833
1440.000000	35.026067
1441.000000	34.859900
1442.000000	34.726900
1443.000000	34.553967
1444.000000	34.395833
1445.000000	34.264900
1446.000000	34.117533
1447.000000	33.941767
1448.000000	33.779600
1449.000000	33.626033
1450.000000	33.502300
1451.000000	33.382333
1452.000000	33.243933
1453.000000	33.099233
1454.000000	32.957733
1455.000000	32.830667
1456.000000	32.713000
1457.000000	32.587700
1458.000000	32.466833
1459.000000	32.348133
1460.000000	32.237533
1461.000000	32.138067
1462.000000	32.047767
1463.000000	31.936233
1464.000000	31.851133
1465.000000	31.768767
1466.000000	31.682933
1467.000000	31.623800
1468.000000	31.544100
1469.000000	31.470367
1470.000000	31.412100
1471.000000	31.358833
1472.000000	31.293333
1473.000000	31.214800
1474.000000	31.141133
1475.000000	31.078967
1476.000000	30.999867
1477.000000	30.938033
1478.000000	30.895633
1479.000000	30.842600
1480.000000	30.798533
1481.000000	30.747933
1482.000000	30.694733
1483.000000	30.655000
1484.000000	30.616033
1485.000000	30.591067
1486.000000	30.567567
1487.000000	30.554767
1488.000000	30.524667
1489.000000	30.507333
1490.000000	30.478133
1491.000000	30.471833
1492.000000	30.444567
1493.000000	30.427433
1494.000000	30.411100
1495.000000	30.400867
1496.000000	30.389800
1497.000000	30.379733
1498.000000	30.380633
1499.000000	30.396400
1500.000000	30.405733
1501.000000	30.411300
1502.000000	30.426033
1503.000000	30.444267
1504.000000	30.465233
1505.000000	30.490633
1506.000000	30.519700
1507.000000	30.549633
1508.000000	30.575733
1509.000000	30.611100
1510.000000	30.639000
1511.000000	30.671300
1512.000000	30.694133
1513.000000	30.716767
1514.000000	30.756700
1515.000000	30.791800
1516.000000	30.814700
1517.000000	30.838333
1518.000000	30.849700
1519.000000	30.875767
1520.000000	30.900267
1521.000000	30.928767
1522.000000	30.948067
1523.000000	30.962867
1524.000000	30.978800
1525.000000	31.011033
1526.000000	31.024400
1527.000000	31.046467
1528.000000	31.054600
1529.000000	31.061900
1530.000000	31.079467
1531.000000	31.087133
1532.000000	31.096167
1533.000000	31.102500
1534.000000	31.104733
1535.000000	31.111033
1536.000000	31.111200
1537.000000	31.103900
1538.000000	31.099667
1539.000000	31.095400
1540.000000	31.089767
1541.000000	31.082000
1542.000000	31.077267
1543.000000	31.077500
1544.000000	31.084533
1545.000000	31.084067
1546.000000	31.081533
1547.000000	31.093067
1548.000000	31.109867
1549.000000	31.125700
1550.000000	31.144633
1551.000000	31.162333
1552.000000	31.174867
1553.000000	31.197467
1554.000000	31.211500
1555.000000	31.207533
1556.000000	31.207500
1557.000000	31.208667
1558.000000	31.198400
1559.000000	31.176867
1560.000000	31.155267
1561.000000	31.137633
1562.000000	31.110833
1563.000000	31.075333
1564.000000	31.044967
1565.000000	31.008533
1566.000000	30.962067
1567.000000	30.926233
1568.000000	30.895000
1569.000000	30.851300
1570.000000	30.810000
1571.000000	30.784300
1572.000000	30.754300
1573.000000	30.727367
1574.000000	30.712833
1575.000000	30.691733
1576.000000	30.678933
1577.000000	30.673933
1578.000000	30.669700
1579.000000	30.671667
1580.000000	30.676300
1581.000000	30.689433
1582.000000	30.713333
1583.000000	30.737800
1584.000000	30.763333
1585.000000	30.789000
1586.000000	30.822000
1587.000000	30.854833
1588.000000	30.888033
1589.000000	30.934333
1590.000000	30.980633
1591.000000	31.021267
1592.000000	31.062867
1593.000000	31.112367
1594.000000	31.165500
1595.000000	31.218533
1596.000000	31.277967
1597.000000	31.338733
1598.000000	31.401167
1599.000000	31.469033
1600.000000	31.546767
1601.000000	31.615933
1602.000000	31.694233
1603.000000	31.765833
1604.000000	31.838167
1605.000000	31.924367
1606.000000	32.000367
1607.000000	32.072733
1608.000000	32.149133
1609.000000	32.226867
1610.000000	32.301333
1611.000000	32.363367
1612.000000	32.440033
1613.000000	32.511400
1614.000000	32.588667
1615.000000	32.665067
1616.000000	32.738033
1617.000000	32.814500
1618.000000	32.901867
1619.000000	32.981667
1620.000000	33.055833
1621.000000	33.130967
1622.000000	33.216167
1623.000000	33.300267
1624.000000	33.379233
1625.000000	33.464500
1626.000000	33.552400
1627.000000	33.635433
1628.000000	33.718767
1629.000000	33.814867
1630.000000	33.896167
1631.000000	33.974167
1632.000000	34.059933
1633.000000	34.136867
1634.000000	34.214067
1635.000000	34.289833
1636.000000	34.351633
1637.000000	34.422633
1638.000000	34.500833
1639.000000	34.561267
1640.000000	34.626533
1641.000000	34.681767
1642.000000	34.741167
1643.000000	34.796367
1644.000000	34.843467
1645.000000	34.897367
1646.000000	34.945633
1647.000000	35.002433
1648.000000	35.047000
1649.000000	35.091767
1650.000000	35.127567
1651.000000	35.155600
1652.000000	35.173133
1653.000000	35.175300
1654.000000	35.185933
1655.000000	35.187167
1656.000000	35.187367
1657.000000	35.163033
1658.000000	35.140467
1659.000000	35.099933
1660.000000	35.052100
1661.000000	34.989733
1662.000000	34.917400
1663.000000	34.832467
1664.000000	34.740100
1665.000000	34.631167
1666.000000	34.522267
1667.000000	34.396567
1668.000000	34.258933
1669.000000	34.086767
1670.000000	33.892867
1671.000000	33.674700
1672.000000	33.422733
1673.000000	33.150467
1674.000000	32.845933
1675.000000	32.484200
1676.000000	32.063800
1677.000000	31.595000
1678.000000	31.072700
1679.000000	30.490333
1680.000000	29.903667
1681.000000	29.277600
1682.000000	28.737400
1683.000000	28.298000
1684.000000	28.001667
1685.000000	27.813833
1686.000000	27.742700
1687.000000	27.721867
1688.000000	27.690867
1689.000000	27.648367
1690.000000	27.571033
1691.000000	27.440767
1692.000000	27.285867
1693.000000	27.133333
1694.000000	27.021467
1695.000000	26.961033
1696.000000	26.937467
1697.000000	26.988467
1698.000000	27.095500
1699.000000	27.235300
1700.000000	27.412100
1701.000000	27.594567
1702.000000	27.755433
1703.000000	27.880600
1704.000000	27.978300
1705.000000	28.047033
1706.000000	28.098567
1707.000000	28.132733
1708.000000	28.157100
1709.000000	28.156067
1710.000000	28.141267
1711.000000	28.126233
1712.000000	28.064500
1713.000000	28.002367
1714.000000	27.914167
1715.000000	27.824167
1716.000000	27.729000
1717.000000	27.621167
1718.000000	27.537667
1719.000000	27.450167
1720.000000	27.400267
1721.000000	27.347700
1722.000000	27.313167
1723.000000	27.275400
1724.000000	27.235667
1725.000000	27.192700
1726.000000	27.121733
1727.000000	27.048933
1728.000000	26.959167
1729.000000	26.829300
1730.000000	26.713933
1731.000000	26.602167
1732.000000	26.522833
1733.000000	26.465933
1734.000000	26.451267
1735.000000	26.491500
1736.000000	26.583733
1737.000000	26.713400
1738.000000	26.906367
1739.000000	27.136300
1740.000000	27.405800
1741.000000	27.682233
1742.000000	27.962767
1743.000000	28.205500
1744.000000	28.447833
1745.000000	28.651233
1746.000000	28.831767
1747.000000	28.990333
1748.000000	29.122500
1749.000000	29.231333
1750.000000	29.315733
1751.000000	29.389933
1752.000000	29.440167
1753.000000	29.468833
1754.000000	29.483367
1755.000000	29.473733
1756.000000	29.447400
1757.000000	29.400267
1758.000000	29.343267
1759.000000	29.279233
1760.000000	29.204267
1761.000000	29.142200
1762.000000	29.085867
1763.000000	29.053300
1764.000000	29.068533
1765.000000	29.105433
1766.000000	29.175700
1767.000000	29.273367
1768.000000	29.386867
1769.000000	29.526300
1770.000000	29.662533
1771.000000	29.813767
1772.000000	29.974867
1773.000000	30.127367
1774.000000	30.282400
1775.000000	30.431700
1776.000000	30.583100
1777.000000	30.710433
1778.000000	30.834433
1779.000000	30.962533
1780.000000	31.075333
1781.000000	31.168600
1782.000000	31.259267
1783.000000	31.347500
1784.000000	31.441767
1785.000000	31.539133
1786.000000	31.620833
1787.000000	31.690600
1788.000000	31.767967
1789.000000	31.841267
1790.000000	31.906967
1791.000000	31.971067
1792.000000	32.036867
1793.000000	32.102767
1794.000000	32.162433
1795.000000	32.222133
1796.000000	32.280933
1797.000000	32.336200
1798.000000	32.390433
1799.000000	32.449100
1800.000000	32.503833
1801.000000	32.570567
1802.000000	32.633833
1803.000000	32.683067
1804.000000	32.736033
1805.000000	32.783433
1806.000000	32.846833
1807.000000	32.913967
1808.000000	32.953633
1809.000000	32.997733
1810.000000	33.049400
1811.000000	33.100767
1812.000000	33.144867
1813.000000	33.168400
1814.000000	33.187433
1815.000000	33.214933
1816.000000	33.230400
1817.000000	33.225100
1818.000000	33.231400
1819.000000	33.256600
1820.000000	33.301767
1821.000000	33.335233
1822.000000	33.344767
1823.000000	33.354333
1824.000000	33.374933
1825.000000	33.416900
1826.000000	33.480667
1827.000000	33.540800
1828.000000	33.616300
1829.000000	33.720633
1830.000000	33.814400
1831.000000	33.899567
1832.000000	33.978800
1833.000000	34.054200
1834.000000	34.141967
1835.000000	34.244067
1836.000000	34.338967
1837.000000	34.405167
1838.000000	34.470667
1839.000000	34.543733
1840.000000	34.608167
1841.000000	34.663700
1842.000000	34.708600
1843.000000	34.724333
1844.000000	34.748900
1845.000000	34.814967
1846.000000	34.888333
1847.000000	34.985133
1848.000000	35.077233
1849.000000	35.140967
1850.000000	35.200467
1851.000000	35.261833
1852.000000	35.316133
1853.000000	35.380667
1854.000000	35.463400
1855.000000	35.517267
1856.000000	35.555400
1857.000000	35.611433
1858.000000	35.646800
1859.000000	35.657100
1860.000000	35.659967
1861.000000	35.648900
1862.000000	35.627367
1863.000000	35.587667
1864.000000	35.558333
1865.000000	35.532233
1866.000000	35.493900
1867.000000	35.452200
1868.000000	35.379233
1869.000000	35.274300
1870.000000	35.120433
1871.000000	34.964467
1872.000000	34.767200
1873.000000	34.534700
1874.000000	34.275267
1875.000000	33.984933
1876.000000	33.673533
1877.000000	33.346767
1878.000000	32.998633
1879.000000	32.607367
1880.000000	32.212333
1881.000000	31.807967
1882.000000	31.352767
1883.000000	30.921567
1884.000000	30.479400
1885.000000	30.025600
1886.000000	29.610867
1887.000000	29.229900
1888.000000	28.889900
1889.000000	28.548367
1890.000000	28.222533
1891.000000	27.911500
1892.000000	27.568367
1893.000000	27.215133
1894.000000	26.890733
1895.000000	26.568233
1896.000000	26.280367
1897.000000	25.984333
1898.000000	25.638367
1899.000000	25.307733
1900.000000	24.952067
1901.000000	24.591300
1902.000000	24.237533
1903.000000	23.923233
1904.000000	23.604567
1905.000000	23.290333
1906.000000	22.941600
1907.000000	22.608267
1908.000000	22.274367
1909.000000	21.994067
1910.000000	21.735400
1911.000000	21.469333
1912.000000	21.204933
1913.000000	20.921233
1914.000000	20.646667
1915.000000	20.376900
1916.000000	20.129567
1917.000000	19.913567
1918.000000	19.699933
1919.000000	19.491333
1920.000000	19.301500
1921.000000	19.102633
1922.000000	18.884267
1923.000000	18.701833
1924.000000	18.548300
1925.000000	18.389233
1926.000000	18.239500
1927.000000	18.108133
1928.000000	17.980967
1929.000000	17.867967
1930.000000	17.754000
1931.000000	17.652167
1932.000000	17.580533
1933.000000	17.500733
1934.000000	17.439833
1935.000000	17.374333
1936.000000	17.342400
1937.000000	17.319400
1938.000000	17.305133
1939.000000	17.287267
1940.000000	17.292833
1941.000000	17.293100
1942.000000	17.294200
1943.000000	17.309867
1944.000000	17.329567
1945.000000	17.377100
1946.000000	17.416767
1947.000000	17.472933
1948.000000	17.526633
1949.000000	17.579400
1950.000000	17.636800
1951.000000	17.690267
1952.000000	17.766333
1953.000000	17.834633
1954.000000	17.910667
1955.000000	17.985867
1956.000000	18.052800
1957.000000	18.129233
1958.000000	18.214500
1959.000000	18.280767
1960.000000	18.363600
1961.000000	18.442833
1962.000000	18.516600
1963.000000	18.592467
1964.000000	18.659500
1965.000000	18.745300
1966.000000	18.813900
1967.000000	18.882367
1968.000000	18.965933
1969.000000	19.046833
1970.000000	19.098800
1971.000000	19.192233
1972.000000	19.263133
1973.000000	19.343000
1974.000000	19.422433
1975.000000	19.490100
1976.000000	19.568900
1977.000000	19.657633
1978.000000	19.732367
1979.000000	19.822667
1980.000000	19.909767
1981.000000	19.987200
1982.000000	20.071633
1983.000000	20.158100
1984.000000	20.219633
1985.000000	20.296600
1986.000000	20.368867
1987.000000	20.440767
1988.000000	20.510567
1989.000000	20.583167
1990.000000	20.654300
1991.000000	20.708467
1992.000000	20.762600
1993.000000	20.820067
1994.000000	20.874767
1995.000000	20.909967
1996.000000	20.951367
1997.000000	20.977133
1998.000000	21.017200
1999.000000	21.039867
2000.000000	21.049533
2001.000000	21.063300
2002.000000	21.071967
2003.000000	21.073233
2004.000000	21.078400
2005.000000	21.074600
2006.000000	21.054133
2007.000000	21.040033
2008.000000	21.026233
2009.000000	20.986667
2010.000000	20.958300
2011.000000	20.908400
2012.000000	20.861667
2013.000000	20.803767
2014.000000	20.749333
2015.000000	20.680867
2016.000000	20.623433
2017.000000	20.535300
2018.000000	20.462433
2019.000000	20.380700
2020.000000	20.297333
2021.000000	20.203733
2022.000000	20.099633
2023.000000	20.005667
2024.000000	19.909967
2025.000000	19.797267
2026.000000	19.697267
2027.000000	19.589100
2028.000000	19.471233
2029.000000	19.333567
2030.000000	19.208700
2031.000000	19.081200
2032.000000	18.956533
2033.000000	18.816167
2034.000000	18.655567
2035.000000	18.503000
2036.000000	18.350167
2037.000000	18.181233
2038.000000	18.011200
2039.000000	17.839467
2040.000000	17.669267
2041.000000	17.480400
2042.000000	17.286800
2043.000000	17.104300
2044.000000	16.922967
2045.000000	16.726000
2046.000000	16.557600
2047.000000	16.399667
2048.000000	16.241067
2049.000000	16.085000
2050.000000	15.952000
2051.000000	15.833333
2052.000000	15.729367
2053.000000	15.635733
2054.000000	15.559500
2055.000000	15.498600
2056.000000	15.457300
2057.000000	15.423433
2058.000000	15.403800
2059.000000	15.399867
2060.000000	15.401833
2061.000000	15.413633
2062.000000	15.438200
2063.000000	15.456367
2064.000000	15.497000
2065.000000	15.527633
2066.000000	15.555600
2067.000000	15.600333
2068.000000	15.641933
2069.000000	15.690333
2070.000000	15.736033
2071.000000	15.777633
2072.000000	15.827133
2073.000000	15.861600
2074.000000	15.895633
2075.000000	15.933733
2076.000000	15.963767
2077.000000	15.996333
2078.000000	16.029900
2079.000000	16.055700
2080.000000	16.083333
2081.000000	16.118733
2082.000000	16.146000
2083.000000	16.160567
2084.000000	16.175133
2085.000000	16.192000
2086.000000	16.213133
2087.000000	16.224100
2088.000000	16.225300
2089.000000	16.243733
2090.000000	16.259967
2091.000000	16.266067
2092.000000	16.274100
2093.000000	16.283933
2094.000000	16.297600
2095.000000	16.305667
2096.000000	16.323333
2097.000000	16.351433
2098.000000	16.362167
2099.000000	16.386133
2100.000000	16.421733
2101.000000	16.442067
2102.000000	16.463267
2103.000000	16.491500
2104.000000	16.517467
2105.000000	16.544300
2106.000000	16.570367
2107.000000	16.598900
2108.000000	16.632167
2109.000000	16.665000
2110.000000	16.692533
2111.000000	16.714233
2112.000000	16.736733
2113.000000	16.755633
2114.000000	16.783933
2115.000000	16.814300
2116.000000	16.832933
2117.000000	16.860033
2118.000000	16.882233
2119.000000	16.895733
2120.000000	16.907033
2121.000000	16.917567
2122.000000	16.927900
2123.000000	16.937800
2124.000000	16.941967
2125.000000	16.940333
2126.000000	16.929700
2127.000000	16.920133
2128.000000	16.917533
2129.000000	16.908700
2130.000000	16.887733
2131.000000	16.871733
2132.000000	16.845200
2133.000000	16.816000
2134.000000	16.786233
2135.000000	16.753300
2136.000000	16.721167
2137.000000	16.687367
2138.000000	16.645933
2139.000000	16.608067
2140.000000	16.556800
2141.000000	16.502533
2142.000000	16.459067
2143.000000	16.412867
2144.000000	16.359700
2145.000000	16.304067
2146.000000	16.246500
2147.000000	16.198100
2148.000000	16.143900
2149.000000	16.086867
2150.000000	16.029033
2151.000000	15.973733
2152.000000	15.914167
2153.000000	15.857700
2154.000000	15.796467
2155.000000	15.741867
2156.000000	15.688833
2157.000000	15.634400
2158.000000	15.586067
2159.000000	15.541167
2160.000000	15.499800
2161.000000	15.470433
2162.000000	15.429533
2163.000000	15.397600
2164.000000	15.364633
2165.000000	15.338900
2166.000000	15.318933
2167.000000	15.284400
2168.000000	15.264733
2169.000000	15.247467
2170.000000	15.234867
2171.000000	15.216400
2172.000000	15.194533
2173.000000	15.188233
2174.000000	15.184600
2175.000000	15.184700
2176.000000	15.190133
2177.000000	15.190200
2178.000000	15.187767
2179.000000	15.203400
2180.000000	15.204733
2181.000000	15.216467
2182.000000	15.227367
2183.000000	15.236233
2184.000000	15.257700
2185.000000	15.269533
2186.000000	15.281933
2187.000000	15.293300
2188.000000	15.311300
2189.000000	15.316133
2190.000000	15.337633
2191.000000	15.332600
2192.000000	15.343867
2193.000000	15.350667
2194.000000	15.362167
2195.000000	15.364633
2196.000000	15.369967
2197.000000	15.380000
2198.000000	15.394467
2199.000000	15.403800
2200.000000	15.402600
2201.000000	15.419233
2202.000000	15.418567
2203.000000	15.450433
2204.000000	15.465700
2205.000000	15.486600
2206.000000	15.500267
2207.000000	15.523033
2208.000000	15.552333
2209.000000	15.574567
2210.000000	15.590533
2211.000000	15.627900
2212.000000	15.665400
2213.000000	15.687633
2214.000000	15.717467
2215.000000	15.769433
2216.000000	15.796200
2217.000000	15.837233
2218.000000	15.872700
2219.000000	15.906333
2220.000000	15.942600
2221.000000	15.979233
2222.000000	16.012467
2223.000000	16.039433
2224.000000	16.053267
2225.000000	16.064267
2226.000000	16.076033
2227.000000	16.075633
2228.000000	16.072267
2229.000000	16.053667
2230.000000	16.040133
2231.000000	16.006800
2232.000000	15.970500
2233.000000	15.942167
2234.000000	15.867967
2235.000000	15.808333
2236.000000	15.748633
2237.000000	15.667433
2238.000000	15.562167
2239.000000	15.459000
2240.000000	15.365667
2241.000000	15.231467
2242.000000	15.092700
2243.000000	14.978300
2244.000000	14.808300
2245.000000	14.654400
2246.000000	14.480500
2247.000000	14.306833
2248.000000	14.091467
2249.000000	13.874267
2250.000000	13.653067
2251.000000	13.420667
2252.000000	13.182833
2253.000000	12.899800
2254.000000	12.632767
2255.000000	12.363733
2256.000000	12.104900
2257.000000	11.805133
2258.000000	11.531367
2259.000000	11.265600
2260.000000	11.021967
2261.000000	10.767433
2262.000000	10.532533
2263.000000	10.318200
2264.000000	10.132433
2265.000000	9.970067
2266.000000	9.824300
2267.000000	9.705000
2268.000000	9.599567
2269.000000	9.521633
2270.000000	9.456700
2271.000000	9.415433
2272.000000	9.404100
2273.000000	9.384900
2274.000000	9.387167
2275.000000	9.413633
2276.000000	9.433567
2277.000000	9.455800
2278.000000	9.498967
2279.000000	9.540967
2280.000000	9.587133
2281.000000	9.629067
2282.000000	9.665800
2283.000000	9.715033
2284.000000	9.741700
2285.000000	9.783533
2286.000000	9.815367
2287.000000	9.831467
2288.000000	9.838033
2289.000000	9.846733
2290.000000	9.821633
2291.000000	9.800800
2292.000000	9.762167
2293.000000	9.723367
2294.000000	9.659500
2295.000000	9.590300
2296.000000	9.504733
2297.000000	9.414800
2298.000000	9.334200
2299.000000	9.240333
2300.000000	9.147033
2301.000000	9.073567
2302.000000	8.999233
2303.000000	8.928200
2304.000000	8.866167
2305.000000	8.828767
2306.000000	8.823067
2307.000000	8.816367
2308.000000	8.831667
2309.000000	8.865267
2310.000000	8.922900
2311.000000	8.996633
2312.000000	9.074667
2313.000000	9.168933
2314.000000	9.271600
2315.000000	9.382967
2316.000000	9.489433
2317.000000	9.610900
2318.000000	9.738800
2319.000000	9.848300
2320.000000	9.971267
2321.000000	10.098333
2322.000000	10.206200
2323.000000	10.305600
2324.000000	10.406133
2325.000000	10.500000
2326.000000	10.588000
2327.000000	10.667267
2328.000000	10.737200
2329.000000	10.809133
2330.000000	10.874733
2331.000000	10.934700
2332.000000	10.981400
2333.000000	11.029367
2334.000000	11.060533
2335.000000	11.082600
2336.000000	11.106600
2337.000000	11.123867
2338.000000	11.134533
2339.000000	11.124167
2340.000000	11.112633
2341.000000	11.089867
2342.000000	11.063000
2343.000000	11.030767
2344.000000	10.986933
2345.000000	10.948033
2346.000000	10.913000
2347.000000	10.873800
2348.000000	10.843067
2349.000000	10.809533
2350.000000	10.779833
2351.000000	10.764033
2352.000000	10.757000
2353.000000	10.759967
2354.000000	10.774000
2355.000000	10.796400
2356.000000	10.827467
2357.000000	10.867900
2358.000000	10.912433
2359.000000	10.971233
2360.000000	11.035400
2361.000000	11.102267
2362.000000	11.167533
2363.000000	11.238967
2364.000000	11.310867
2365.000000	11.374433
2366.000000	11.438033
2367.000000	11.493900
2368.000000	11.552133
2369.000000	11.615133
2370.000000	11.666400
2371.000000	11.702233
2372.000000	11.740967
2373.000000	11.785267
2374.000000	11.808600
2375.000000	11.840033
2376.000000	11.879700
2377.000000	11.902033
2378.000000	11.919567
2379.000000	11.942433
2380.000000	11.960000
2381.000000	11.973667
2382.000000	11.984367
2383.000000	11.990167
2384.000000	11.996700
2385.000000	11.998367
2386.000000	11.999600
2387.000000	11.992533
2388.000000	11.987867
2389.000000	11.981333
2390.000000	11.975133
2391.000000	11.953600
2392.000000	11.929133
2393.000000	11.911900
2394.000000	11.888100
2395.000000	11.868933
2396.000000	11.852867
2397.000000	11.809400
2398.000000	11.766400
2399.000000	11.724333
2400.000000	11.686267
2401.000000	11.659967
2402.000000	11.630633
2403.000000	11.608633
2404.000000	11.577233
2405.000000	11.548733
2406.000000	11.524633
2407.000000	11.499600
2408.000000	11.476800
2409.000000	11.458233
2410.000000	11.445100
2411.000000	11.421367
2412.000000	11.384967
2413.000000	11.349300
2414.000000	11.322933
2415.000000	11.306967
2416.000000	11.270767
2417.000000	11.246667
2418.000000	11.209300
2419.000000	11.185933
2420.000000	11.159467
2421.000000	11.129800
2422.000000	11.090367
2423.000000	11.052633
2424.000000	11.015433
2425.000000	10.984133
2426.000000	10.937767
2427.000000	10.895167
2428.000000	10.845600
2429.000000	10.793133
2430.000000	10.731033
2431.000000	10.676733
2432.000000	10.633767
2433.000000	10.578000
2434.000000	10.503200
2435.000000	10.433600
2436.000000	10.366067
2437.000000	10.294933
2438.000000	10.227667
2439.000000	10.141533
2440.000000	10.059900
2441.000000	9.994800
2442.000000	9.899300
2443.000000	9.820700
2444.000000	9.737233
2445.000000	9.657967
2446.000000	9.578733
2447.000000	9.502567
2448.000000	9.410500
2449.000000	9.319367
2450.000000	9.257433
2451.000000	9.167600
2452.000000	9.085600
2453.000000	8.998233
2454.000000	8.926633
2455.000000	8.856600
2456.000000	8.785067
2457.000000	8.730600
2458.000000	8.668233
2459.000000	8.615867
2460.000000	8.543467
2461.000000	8.503433
2462.000000	8.467433
2463.000000	8.403067
2464.000000	8.397167
2465.000000	8.367067
2466.000000	8.344500
2467.000000	8.326700
2468.000000	8.282600
2469.000000	8.288267
2470.000000	8.260900
2471.000000	8.257100
2472.000000	8.278100
2473.000000	8.257200
2474.000000	8.235533
2475.000000	8.211500
2476.000000	8.231833
2477.000000	8.215133
2478.000000	8.223833
2479.000000	8.232967
2480.000000	8.251233
2481.000000	8.251167
2482.000000	8.251900
2483.000000	8.245233
2484.000000	8.244433
2485.000000	8.272600
2486.000000	8.328500
2487.000000	8.313067
2488.000000	8.303900
2489.000000	8.311133
2490.000000	8.311533
2491.000000	8.344567
2492.000000	8.392200
2493.000000	8.432267
2494.000000	8.449200
2495.000000	8.450967
2496.000000	8.485133
2497.000000	8.555067
2498.000000	8.544633
2499.000000	8.510900
2500.000000	8.560700
