PE UV       SUBTECH     SPECTRUM    ASCII       PEDS        4.00        
   -1
CICIMAUCR0018-7.Sample.ASC
24/04/25
15:44:01.00
24/04/25
15:44:01.00
Vinicio Soto Monge
C. cupreomarginata
250,000000
1
Lambda 1050
1050L1511233
PerkinElmer UV WinLab 6.3.2.0749 / 2.02.05 Lambda 900 UV/VIS/NIR, Aug  7 2015 09:38:08

0
0
3350/servo 860,8/2
0
0
UV/VIS
1
1
1
DoubleDePol,CommonBeamDepol,RBeamAtt,SBeamAtt,60mm sphere, WB InGaAs Detector
0
0
0
0
Program
Program
3350/servo 860,8/2
3350/0,2 860,8/0,2
3350/0,2 860,8/0,2
0
15.00
 
 
 
0
 
860,8
319,2
860,8
Front
100
on
S:100 R:100
0
0
0
0
 
0
 
 
 
0
 
 
0
0
0
0
0
 
 
 
 
0
0


0
0
#HDR
-1
-1
#GR
nm
%R
1.0
0.0
2500,000000
-1,000000
2251
8
71,516000
5,467700
#DATA
2482.000000	8.077573
2481.000000	8.145597
2480.000000	8.059032
2479.000000	8.016966
2478.000000	8.081397
2477.000000	8.070620
2476.000000	8.136790
2475.000000	8.018125
2474.000000	8.109789
2473.000000	8.108166
2472.000000	8.097505
2471.000000	8.128910
2470.000000	8.107819
2469.000000	8.104806
2468.000000	8.118944
2467.000000	8.091943
2466.000000	8.125665
2465.000000	8.089509
2464.000000	8.141657
2463.000000	8.192182
2462.000000	8.192066
2461.000000	8.217793
2460.000000	8.252905
2459.000000	8.294276
2458.000000	8.349321
2457.000000	8.358244
2456.000000	8.414100
2455.000000	8.456514
2454.000000	8.495682
2453.000000	8.585376
2452.000000	8.652010
2451.000000	8.709604
2450.000000	8.771718
2449.000000	8.805904
2448.000000	8.868597
2447.000000	8.975674
2446.000000	9.037208
2445.000000	9.084720
2444.000000	9.160392
2443.000000	9.193883
2442.000000	9.304089
2441.000000	9.353803
2440.000000	9.404676
2439.000000	9.478262
2438.000000	9.537711
2437.000000	9.579197
2436.000000	9.640615
2435.000000	9.689866
2434.000000	9.763105
2433.000000	9.806098
2432.000000	9.843181
2431.000000	9.883972
2430.000000	9.950141
2429.000000	9.981198
2428.000000	10.013066
2427.000000	10.066025
2426.000000	10.101949
2425.000000	10.130804
2424.000000	10.193382
2423.000000	10.217370
2422.000000	10.245298
2421.000000	10.260479
2420.000000	10.274153
2419.000000	10.325374
2418.000000	10.353302
2417.000000	10.359907
2416.000000	10.391775
2415.000000	10.424107
2414.000000	10.454932
2413.000000	10.472778
2412.000000	10.495723
2411.000000	10.544047
2410.000000	10.613229
2409.000000	10.697477
2408.000000	10.772917
2407.000000	10.846388
2406.000000	10.875243
2405.000000	10.906531
2404.000000	10.925189
2403.000000	10.931099
2402.000000	10.971774
2401.000000	11.041884
2400.000000	11.069001
2399.000000	11.103418
2398.000000	11.140965
2397.000000	11.161940
2396.000000	11.224517
2395.000000	11.280721
2394.000000	11.300537
2393.000000	11.320816
2392.000000	11.357783
2391.000000	11.393592
2390.000000	11.401472
2389.000000	11.427893
2388.000000	11.471929
2387.000000	11.477607
2386.000000	11.506115
2385.000000	11.528712
2384.000000	11.517703
2383.000000	11.532768
2382.000000	11.558842
2381.000000	11.542387
2380.000000	11.525583
2379.000000	11.525468
2378.000000	11.529176
2377.000000	11.516660
2376.000000	11.506926
2375.000000	11.502870
2374.000000	11.484908
2373.000000	11.463354
2372.000000	11.447478
2371.000000	11.423026
2370.000000	11.397879
2369.000000	11.372732
2368.000000	11.331478
2367.000000	11.287326
2366.000000	11.249432
2365.000000	11.189288
2364.000000	11.147686
2363.000000	11.096349
2362.000000	11.030064
2361.000000	10.995762
2360.000000	10.942340
2359.000000	10.875475
2358.000000	10.834452
2357.000000	10.803047
2356.000000	10.761213
2355.000000	10.735371
2354.000000	10.716714
2353.000000	10.702692
2352.000000	10.710108
2351.000000	10.716714
2350.000000	10.752638
2349.000000	10.782536
2348.000000	10.816837
2347.000000	10.847083
2346.000000	10.876749
2345.000000	10.936314
2344.000000	10.984290
2343.000000	11.015115
2342.000000	11.067262
2341.000000	11.093800
2340.000000	11.135750
2339.000000	11.172137
2338.000000	11.174223
2337.000000	11.185696
2336.000000	11.182451
2335.000000	11.200529
2334.000000	11.196821
2333.000000	11.162867
2332.000000	11.133664
2331.000000	11.108285
2330.000000	11.070739
2329.000000	11.023111
2328.000000	10.974903
2327.000000	10.917888
2326.000000	10.865161
2325.000000	10.798528
2324.000000	10.730272
2323.000000	10.644518
2322.000000	10.585533
2321.000000	10.502908
2320.000000	10.395947
2319.000000	10.309613
2318.000000	10.221194
2317.000000	10.135903
2316.000000	10.038677
2315.000000	9.944811
2314.000000	9.834837
2313.000000	9.747460
2312.000000	9.673527
2311.000000	9.621958
2310.000000	9.540724
2309.000000	9.499237
2308.000000	9.482782
2307.000000	9.439325
2306.000000	9.444540
2305.000000	9.454622
2304.000000	9.468760
2303.000000	9.515345
2302.000000	9.570274
2301.000000	9.643744
2300.000000	9.729498
2299.000000	9.787672
2298.000000	9.886405
2297.000000	9.978997
2296.000000	10.059304
2295.000000	10.122577
2294.000000	10.212503
2293.000000	10.271603
2292.000000	10.332906
2291.000000	10.389457
2290.000000	10.395367
2289.000000	10.427004
2288.000000	10.433957
2287.000000	10.430944
2286.000000	10.431871
2285.000000	10.415068
2284.000000	10.376478
2283.000000	10.357126
2282.000000	10.325026
2281.000000	10.269633
2280.000000	10.238577
2279.000000	10.203116
2278.000000	10.164643
2277.000000	10.125126
2276.000000	10.078773
2275.000000	10.075528
2274.000000	10.064519
2273.000000	10.056986
2272.000000	10.061506
2271.000000	10.068343
2270.000000	10.109598
2269.000000	10.139148
2268.000000	10.201146
2267.000000	10.307296
2266.000000	10.385981
2265.000000	10.497229
2264.000000	10.634784
2263.000000	10.786707
2262.000000	10.977337
2261.000000	11.188825
2260.000000	11.413292
2259.000000	11.631154
2258.000000	11.872772
2257.000000	12.162829
2256.000000	12.389150
2255.000000	12.638301
2254.000000	12.907383
2253.000000	13.172642
2252.000000	13.396877
2251.000000	13.618447
2250.000000	13.858559
2249.000000	14.073987
2248.000000	14.292312
2247.000000	14.456288
2246.000000	14.616671
2245.000000	14.797798
2244.000000	14.986341
2243.000000	15.114740
2242.000000	15.257857
2241.000000	15.380578
2240.000000	15.525433
2239.000000	15.617792
2238.000000	15.713744
2237.000000	15.827774
2236.000000	15.913760
2235.000000	16.024081
2234.000000	16.073216
2233.000000	16.132549
2232.000000	16.200689
2231.000000	16.256892
2230.000000	16.283314
2229.000000	16.330363
2228.000000	16.345196
2227.000000	16.352844
2226.000000	16.382858
2225.000000	16.359681
2224.000000	16.359450
2223.000000	16.359797
2222.000000	16.329320
2221.000000	16.320281
2220.000000	16.317152
2219.000000	16.313096
2218.000000	16.288065
2217.000000	16.247506
2216.000000	16.214015
2215.000000	16.188753
2214.000000	16.148773
2213.000000	16.124205
2212.000000	16.096393
2211.000000	16.087006
2210.000000	16.062323
2209.000000	16.005308
2208.000000	15.988505
2207.000000	15.978076
2206.000000	15.970311
2205.000000	15.937169
2204.000000	15.941920
2203.000000	15.922451
2202.000000	15.908545
2201.000000	15.894755
2200.000000	15.873432
2199.000000	15.838667
2198.000000	15.856629
2197.000000	15.829049
2196.000000	15.826963
2195.000000	15.838204
2194.000000	15.839710
2193.000000	15.820126
2192.000000	15.804366
2191.000000	15.780725
2190.000000	15.759982
2189.000000	15.759055
2188.000000	15.761720
2187.000000	15.745033
2186.000000	15.700881
2185.000000	15.703547
2184.000000	15.675503
2183.000000	15.644214
2182.000000	15.621385
2181.000000	15.618024
2180.000000	15.603191
2179.000000	15.608290
2178.000000	15.582332
2177.000000	15.575611
2176.000000	15.553825
2175.000000	15.558228
2174.000000	15.572018
2173.000000	15.561009
2172.000000	15.565413
2171.000000	15.583723
2170.000000	15.588590
2169.000000	15.591139
2168.000000	15.606783
2167.000000	15.624514
2166.000000	15.633900
2165.000000	15.650588
2164.000000	15.667854
2163.000000	15.691495
2162.000000	15.715251
2161.000000	15.777249
2160.000000	15.806799
2159.000000	15.800889
2158.000000	15.843187
2157.000000	15.858252
2156.000000	15.898116
2155.000000	15.949916
2154.000000	15.995922
2153.000000	16.031614
2152.000000	16.070667
2151.000000	16.106127
2150.000000	16.142747
2149.000000	16.199761
2148.000000	16.237656
2147.000000	16.278447
2146.000000	16.321208
2145.000000	16.364433
2144.000000	16.401052
2143.000000	16.428053
2142.000000	16.459921
2141.000000	16.499321
2140.000000	16.522151
2139.000000	16.566534
2138.000000	16.588204
2137.000000	16.617291
2136.000000	16.646958
2135.000000	16.663065
2134.000000	16.675349
2133.000000	16.686822
2132.000000	16.695629
2131.000000	16.708260
2130.000000	16.714518
2129.000000	16.721007
2128.000000	16.719617
2127.000000	16.729815
2126.000000	16.724832
2125.000000	16.720660
2124.000000	16.711041
2123.000000	16.698294
2122.000000	16.676972
2121.000000	16.669555
2120.000000	16.656344
2119.000000	16.618450
2118.000000	16.599561
2117.000000	16.570938
2116.000000	16.527365
2115.000000	16.512416
2114.000000	16.491441
2113.000000	16.450534
2112.000000	16.417276
2111.000000	16.391549
2110.000000	16.364317
2109.000000	16.330826
2108.000000	16.305448
2107.000000	16.286559
2106.000000	16.237540
2105.000000	16.201384
2104.000000	16.174846
2103.000000	16.133592
2102.000000	16.110879
2101.000000	16.087702
2100.000000	16.051546
2099.000000	16.010755
2098.000000	15.983522
2097.000000	15.970080
2096.000000	15.937284
2095.000000	15.901708
2094.000000	15.890699
2093.000000	15.864046
2092.000000	15.833452
2091.000000	15.833568
2090.000000	15.833221
2089.000000	15.804134
2088.000000	15.784549
2087.000000	15.767514
2086.000000	15.745612
2085.000000	15.728462
2084.000000	15.713397
2083.000000	15.685932
2082.000000	15.640506
2081.000000	15.613157
2080.000000	15.595890
2079.000000	15.580362
2078.000000	15.552666
2077.000000	15.514076
2076.000000	15.482324
2075.000000	15.450340
2074.000000	15.411287
2073.000000	15.365050
2072.000000	15.338860
2071.000000	15.302588
2070.000000	15.254380
2069.000000	15.213473
2068.000000	15.194932
2067.000000	15.163875
2066.000000	15.130269
2065.000000	15.099791
2064.000000	15.064563
2063.000000	15.029797
2062.000000	15.002449
2061.000000	14.991903
2060.000000	14.983096
2059.000000	14.973594
2058.000000	14.984834
2057.000000	14.984950
2056.000000	15.006968
2055.000000	15.023192
2054.000000	15.066880
2053.000000	15.127835
2052.000000	15.199567
2051.000000	15.280338
2050.000000	15.346972
2049.000000	15.432262
2048.000000	15.521145
2047.000000	15.672142
2046.000000	15.789996
2045.000000	15.912949
2044.000000	16.036249
2043.000000	16.167546
2042.000000	16.277056
2041.000000	16.417623
2040.000000	16.552744
2039.000000	16.677435
2038.000000	16.796795
2037.000000	16.915345
2036.000000	17.035285
2035.000000	17.130309
2034.000000	17.264271
2033.000000	17.345969
2032.000000	17.448758
2031.000000	17.535440
2030.000000	17.615979
2029.000000	17.687248
2028.000000	17.768019
2027.000000	17.841489
2026.000000	17.916814
2025.000000	17.985417
2024.000000	18.028757
2023.000000	18.077660
2022.000000	18.136182
2021.000000	18.218228
2020.000000	18.247778
2019.000000	18.301664
2018.000000	18.361228
2017.000000	18.390084
2016.000000	18.456485
2015.000000	18.470275
2014.000000	18.472013
2013.000000	18.503534
2012.000000	18.509676
2011.000000	18.527870
2010.000000	18.540733
2009.000000	18.553016
2008.000000	18.548497
2007.000000	18.540269
2006.000000	18.504693
2005.000000	18.503882
2004.000000	18.487890
2003.000000	18.487426
2002.000000	18.448373
2001.000000	18.403990
2000.000000	18.384985
1999.000000	18.363894
1998.000000	18.308849
1997.000000	18.245692
1996.000000	18.188330
1995.000000	18.167239
1994.000000	18.112310
1993.000000	18.042779
1992.000000	17.998280
1991.000000	17.935934
1990.000000	17.871503
1989.000000	17.813329
1988.000000	17.719347
1987.000000	17.654916
1986.000000	17.592107
1985.000000	17.519795
1984.000000	17.429985
1983.000000	17.364858
1982.000000	17.280495
1981.000000	17.213630
1980.000000	17.138537
1979.000000	17.050350
1978.000000	16.978617
1977.000000	16.912795
1976.000000	16.841527
1975.000000	16.769215
1974.000000	16.690530
1973.000000	16.592376
1972.000000	16.559465
1971.000000	16.471973
1970.000000	16.417160
1969.000000	16.347977
1968.000000	16.307070
1967.000000	16.247158
1966.000000	16.184233
1965.000000	16.101840
1964.000000	16.031730
1963.000000	15.987926
1962.000000	15.920365
1961.000000	15.841217
1960.000000	15.794400
1959.000000	15.748509
1958.000000	15.674923
1957.000000	15.622775
1956.000000	15.550580
1955.000000	15.499243
1954.000000	15.442576
1953.000000	15.363311
1952.000000	15.315915
1951.000000	15.261565
1950.000000	15.231899
1949.000000	15.172798
1948.000000	15.156922
1947.000000	15.099560
1946.000000	15.044862
1945.000000	15.016703
1944.000000	14.993873
1943.000000	14.957138
1942.000000	14.974405
1941.000000	14.968031
1940.000000	14.958181
1939.000000	14.947752
1938.000000	14.935004
1937.000000	14.957718
1936.000000	15.001985
1935.000000	15.012878
1934.000000	15.068271
1933.000000	15.091100
1932.000000	15.159935
1931.000000	15.225641
1930.000000	15.294129
1929.000000	15.374204
1928.000000	15.476414
1927.000000	15.568889
1926.000000	15.676082
1925.000000	15.816881
1924.000000	15.910747
1923.000000	16.054327
1922.000000	16.186782
1921.000000	16.364664
1920.000000	16.544516
1919.000000	16.673843
1918.000000	16.873627
1917.000000	17.078162
1916.000000	17.246773
1915.000000	17.451308
1914.000000	17.696171
1913.000000	17.893405
1912.000000	18.117525
1911.000000	18.333416
1910.000000	18.566807
1909.000000	18.814450
1908.000000	19.068816
1907.000000	19.342997
1906.000000	19.609646
1905.000000	19.890665
1904.000000	20.176782
1903.000000	20.459075
1902.000000	20.744265
1901.000000	21.062715
1900.000000	21.398083
1899.000000	21.712823
1898.000000	22.022581
1897.000000	22.363164
1896.000000	22.685901
1895.000000	23.025325
1894.000000	23.359418
1893.000000	23.705679
1892.000000	24.089603
1891.000000	24.465067
1890.000000	24.853394
1889.000000	25.227583
1888.000000	25.651602
1887.000000	26.105172
1886.000000	26.600923
1885.000000	27.126689
1884.000000	27.690000
1883.000000	28.287382
1882.000000	28.877347
1881.000000	29.490489
1880.000000	30.042212
1879.000000	30.607146
1878.000000	31.180656
1877.000000	31.698078
1876.000000	32.163931
1875.000000	32.620398
1874.000000	33.045112
1873.000000	33.434714
1872.000000	33.782134
1871.000000	34.099656
1870.000000	34.363292
1869.000000	34.617889
1868.000000	34.805157
1867.000000	34.953373
1866.000000	35.076673
1865.000000	35.195107
1864.000000	35.303342
1863.000000	35.403930
1862.000000	35.502431
1861.000000	35.589344
1860.000000	35.643346
1859.000000	35.669883
1858.000000	35.689699
1857.000000	35.676373
1856.000000	35.659685
1855.000000	35.649604
1854.000000	35.615997
1853.000000	35.530938
1852.000000	35.477284
1851.000000	35.454919
1850.000000	35.431046
1849.000000	35.387126
1848.000000	35.289668
1847.000000	35.179347
1846.000000	35.058132
1845.000000	34.968206
1844.000000	34.947463
1843.000000	34.958008
1842.000000	34.929153
1841.000000	34.872138
1840.000000	34.804346
1839.000000	34.726936
1838.000000	34.669457
1837.000000	34.596219
1836.000000	34.495052
1835.000000	34.383340
1834.000000	34.273598
1833.000000	34.184483
1832.000000	34.122833
1831.000000	34.036731
1830.000000	33.920500
1829.000000	33.798821
1828.000000	33.674130
1827.000000	33.579685
1826.000000	33.493235
1825.000000	33.409451
1824.000000	33.344788
1823.000000	33.335865
1822.000000	33.331462
1821.000000	33.285919
1820.000000	33.226587
1819.000000	33.168645
1818.000000	33.133416
1817.000000	33.133995
1816.000000	33.140832
1815.000000	33.113947
1814.000000	33.111050
1813.000000	33.108733
1812.000000	33.074663
1811.000000	33.015794
1810.000000	32.956345
1809.000000	32.914164
1808.000000	32.881021
1807.000000	32.836058
1806.000000	32.743003
1805.000000	32.665940
1804.000000	32.605101
1803.000000	32.576825
1802.000000	32.538931
1801.000000	32.447035
1800.000000	32.362672
1799.000000	32.293837
1798.000000	32.238097
1797.000000	32.175635
1796.000000	32.146317
1795.000000	32.074237
1794.000000	32.002157
1793.000000	31.936103
1792.000000	31.869702
1791.000000	31.799824
1790.000000	31.750109
1789.000000	31.673974
1788.000000	31.579644
1787.000000	31.502234
1786.000000	31.411844
1785.000000	31.322266
1784.000000	31.218086
1783.000000	31.118194
1782.000000	31.025371
1781.000000	30.933128
1780.000000	30.818055
1779.000000	30.710515
1778.000000	30.600541
1777.000000	30.469592
1776.000000	30.345828
1775.000000	30.181273
1774.000000	30.021585
1773.000000	29.875223
1772.000000	29.703483
1771.000000	29.536147
1770.000000	29.387120
1769.000000	29.218973
1768.000000	29.059285
1767.000000	28.929611
1766.000000	28.823924
1765.000000	28.745355
1764.000000	28.713024
1763.000000	28.707461
1762.000000	28.723685
1761.000000	28.755205
1760.000000	28.834702
1759.000000	28.918718
1758.000000	29.003660
1757.000000	29.076667
1756.000000	29.115836
1755.000000	29.173778
1754.000000	29.199041
1753.000000	29.183165
1752.000000	29.185251
1751.000000	29.128120
1750.000000	29.067397
1749.000000	28.983728
1748.000000	28.888588
1747.000000	28.760536
1746.000000	28.618462
1745.000000	28.434439
1744.000000	28.251110
1743.000000	28.021197
1742.000000	27.770540
1741.000000	27.494736
1740.000000	27.226465
1739.000000	26.938609
1738.000000	26.667441
1737.000000	26.470670
1736.000000	26.315269
1735.000000	26.201703
1734.000000	26.181307
1733.000000	26.217927
1732.000000	26.280156
1731.000000	26.402066
1730.000000	26.526410
1729.000000	26.660488
1728.000000	26.810210
1727.000000	26.959004
1726.000000	27.068862
1725.000000	27.151719
1724.000000	27.212674
1723.000000	27.292287
1722.000000	27.321026
1721.000000	27.341074
1720.000000	27.393801
1719.000000	27.409677
1718.000000	27.498792
1717.000000	27.579447
1716.000000	27.645964
1715.000000	27.742496
1714.000000	27.846675
1713.000000	27.926519
1712.000000	27.976581
1711.000000	28.025368
1710.000000	28.054571
1709.000000	28.029077
1708.000000	28.025021
1707.000000	27.991183
1706.000000	27.948537
1705.000000	27.875646
1704.000000	27.782128
1703.000000	27.695215
1702.000000	27.550592
1701.000000	27.367843
1700.000000	27.162033
1699.000000	26.973722
1698.000000	26.800012
1697.000000	26.674625
1696.000000	26.596751
1695.000000	26.599185
1694.000000	26.683201
1693.000000	26.825390
1692.000000	27.011616
1691.000000	27.202593
1690.000000	27.386384
1689.000000	27.540162
1688.000000	27.629741
1687.000000	27.655003
1686.000000	27.660334
1685.000000	27.716769
1684.000000	27.885496
1683.000000	28.200469
1682.000000	28.643377
1681.000000	29.213642
1680.000000	29.882408
1679.000000	30.568673
1678.000000	31.243233
1677.000000	31.891720
1676.000000	32.457349
1675.000000	32.955071
1674.000000	33.404121
1673.000000	33.751425
1672.000000	34.073814
1671.000000	34.347068
1670.000000	34.610588
1669.000000	34.824510
1668.000000	35.016414
1667.000000	35.181201
1666.000000	35.326867
1665.000000	35.438463
1664.000000	35.539166
1663.000000	35.597340
1662.000000	35.708125
1661.000000	35.776728
1660.000000	35.789939
1659.000000	35.841855
1658.000000	35.881951
1657.000000	35.898986
1656.000000	35.918570
1655.000000	35.915905
1654.000000	35.895393
1653.000000	35.867581
1652.000000	35.832700
1651.000000	35.810682
1650.000000	35.773136
1649.000000	35.706271
1648.000000	35.648213
1647.000000	35.583897
1646.000000	35.499418
1645.000000	35.440897
1644.000000	35.342627
1643.000000	35.274024
1642.000000	35.183518
1641.000000	35.113640
1640.000000	35.054771
1639.000000	34.951403
1638.000000	34.861477
1637.000000	34.765177
1636.000000	34.665401
1635.000000	34.579763
1634.000000	34.478596
1633.000000	34.382297
1632.000000	34.276727
1631.000000	34.167564
1630.000000	34.067209
1629.000000	33.960827
1628.000000	33.838917
1627.000000	33.741227
1626.000000	33.617115
1625.000000	33.506099
1624.000000	33.402846
1623.000000	33.293220
1622.000000	33.180117
1621.000000	33.085208
1620.000000	32.978016
1619.000000	32.874879
1618.000000	32.765484
1617.000000	32.683902
1616.000000	32.583663
1615.000000	32.478672
1614.000000	32.381677
1613.000000	32.286884
1612.000000	32.191280
1611.000000	32.107959
1610.000000	32.023016
1609.000000	31.913738
1608.000000	31.834473
1607.000000	31.758685
1606.000000	31.657634
1605.000000	31.560755
1604.000000	31.467237
1603.000000	31.371517
1602.000000	31.281938
1601.000000	31.203021
1600.000000	31.138938
1599.000000	31.051909
1598.000000	30.962794
1597.000000	30.879821
1596.000000	30.810523
1595.000000	30.753160
1594.000000	30.694407
1593.000000	30.616185
1592.000000	30.573308
1591.000000	30.528693
1590.000000	30.462060
1589.000000	30.411998
1588.000000	30.373293
1587.000000	30.330763
1586.000000	30.290204
1585.000000	30.265173
1584.000000	30.216733
1583.000000	30.170496
1582.000000	30.154620
1581.000000	30.126923
1580.000000	30.113828
1579.000000	30.118696
1578.000000	30.096098
1577.000000	30.087407
1576.000000	30.096678
1575.000000	30.114408
1574.000000	30.141525
1573.000000	30.157517
1572.000000	30.189617
1571.000000	30.217660
1570.000000	30.236318
1569.000000	30.272474
1568.000000	30.318479
1567.000000	30.368889
1566.000000	30.390791
1565.000000	30.427990
1564.000000	30.478052
1563.000000	30.500997
1562.000000	30.537268
1561.000000	30.579682
1560.000000	30.615374
1559.000000	30.630555
1558.000000	30.641564
1557.000000	30.663466
1556.000000	30.672737
1555.000000	30.672389
1554.000000	30.673432
1553.000000	30.669260
1552.000000	30.661612
1551.000000	30.655006
1550.000000	30.642954
1549.000000	30.629164
1548.000000	30.609348
1547.000000	30.605872
1546.000000	30.591270
1545.000000	30.579798
1544.000000	30.572845
1543.000000	30.572381
1542.000000	30.581304
1541.000000	30.569948
1540.000000	30.563110
1539.000000	30.573888
1538.000000	30.556737
1537.000000	30.572149
1536.000000	30.572149
1535.000000	30.546076
1534.000000	30.532401
1533.000000	30.518379
1532.000000	30.502967
1531.000000	30.485584
1530.000000	30.472837
1529.000000	30.457424
1528.000000	30.414663
1527.000000	30.396469
1526.000000	30.373524
1525.000000	30.334240
1524.000000	30.291942
1523.000000	30.266679
1522.000000	30.243618
1521.000000	30.198308
1520.000000	30.163774
1519.000000	30.111743
1518.000000	30.061101
1517.000000	30.034216
1516.000000	29.991107
1515.000000	29.940234
1514.000000	29.898748
1513.000000	29.860390
1512.000000	29.804998
1511.000000	29.770117
1510.000000	29.708466
1509.000000	29.684015
1508.000000	29.640559
1507.000000	29.587136
1506.000000	29.529658
1505.000000	29.471136
1504.000000	29.448423
1503.000000	29.391987
1502.000000	29.350269
1501.000000	29.304727
1500.000000	29.270541
1499.000000	29.237398
1498.000000	29.205414
1497.000000	29.176096
1496.000000	29.142142
1495.000000	29.120008
1494.000000	29.095441
1493.000000	29.095788
1492.000000	29.075972
1491.000000	29.054418
1490.000000	29.068671
1489.000000	29.068324
1488.000000	29.057662
1487.000000	29.040396
1486.000000	29.026605
1485.000000	29.019652
1484.000000	29.031241
1483.000000	29.032631
1482.000000	29.049435
1481.000000	29.045495
1480.000000	29.061255
1479.000000	29.078521
1478.000000	29.089415
1477.000000	29.106681
1476.000000	29.118733
1475.000000	29.150601
1474.000000	29.191856
1473.000000	29.235544
1472.000000	29.270889
1471.000000	29.305422
1470.000000	29.321067
1469.000000	29.328947
1468.000000	29.345518
1467.000000	29.404851
1466.000000	29.456767
1465.000000	29.497558
1464.000000	29.538001
1463.000000	29.611356
1462.000000	29.675208
1461.000000	29.754009
1460.000000	29.819483
1459.000000	29.892143
1458.000000	30.005013
1457.000000	30.115683
1456.000000	30.229017
1455.000000	30.334240
1454.000000	30.423007
1453.000000	30.568093
1452.000000	30.712601
1451.000000	30.837292
1450.000000	30.966386
1449.000000	31.061064
1448.000000	31.215305
1447.000000	31.386234
1446.000000	31.570605
1445.000000	31.693906
1444.000000	31.831692
1443.000000	31.992307
1442.000000	32.165206
1441.000000	32.338568
1440.000000	32.508454
1439.000000	32.666520
1438.000000	32.814851
1437.000000	32.993428
1436.000000	33.137472
1435.000000	33.331462
1434.000000	33.531130
1433.000000	33.738446
1432.000000	33.910533
1431.000000	34.092587
1430.000000	34.269542
1429.000000	34.533873
1428.000000	34.777461
1427.000000	35.023251
1426.000000	35.288741
1425.000000	35.561648
1424.000000	35.873260
1423.000000	36.165982
1422.000000	36.437267
1421.000000	36.775300
1420.000000	37.107192
1419.000000	37.411039
1418.000000	37.690551
1417.000000	37.958591
1416.000000	38.307285
1415.000000	38.716356
1414.000000	39.008151
1413.000000	39.257881
1412.000000	39.564394
1411.000000	39.959211
1410.000000	40.428193
1409.000000	40.836104
1408.000000	41.330813
1407.000000	41.776966
1406.000000	42.279323
1405.000000	42.764645
1404.000000	43.201527
1403.000000	43.635628
1402.000000	44.111100
1401.000000	44.646831
1400.000000	45.081049
1399.000000	45.330199
1398.000000	45.583289
1397.000000	45.945774
1396.000000	46.321238
1395.000000	46.565985
1394.000000	46.740738
1393.000000	46.965785
1392.000000	47.235447
1391.000000	47.464549
1390.000000	47.711961
1389.000000	48.084412
1388.000000	48.508316
1387.000000	48.893861
1386.000000	49.337581
1385.000000	49.829624
1384.000000	50.354347
1383.000000	50.849866
1382.000000	51.254069
1381.000000	51.554209
1380.000000	51.698600
1379.000000	51.829201
1378.000000	51.930252
1377.000000	52.072905
1376.000000	52.241516
1375.000000	52.474559
1374.000000	52.772033
1373.000000	53.138458
1372.000000	53.586813
1371.000000	53.970620
1370.000000	54.311551
1369.000000	54.657233
1368.000000	54.990862
1367.000000	55.243489
1366.000000	55.455209
1365.000000	55.688020
1364.000000	55.886529
1363.000000	56.079939
1362.000000	56.256778
1361.000000	56.386800
1360.000000	56.387032
1359.000000	56.498744
1358.000000	56.625405
1357.000000	56.819047
1356.000000	57.156038
1355.000000	57.628612
1354.000000	58.126218
1353.000000	58.613510
1352.000000	59.199303
1351.000000	59.748245
1350.000000	60.233103
1349.000000	60.683544
1348.000000	61.099568
1347.000000	61.464602
1346.000000	61.804489
1345.000000	62.162687
1344.000000	62.504313
1343.000000	62.800859
1342.000000	63.096595
1341.000000	63.386189
1340.000000	63.643567
1339.000000	63.882868
1338.000000	64.117764
1337.000000	64.349880
1336.000000	64.573652
1335.000000	64.789196
1334.000000	64.974262
1333.000000	65.148088
1332.000000	65.325970
1331.000000	65.509994
1330.000000	65.679184
1329.000000	65.821026
1328.000000	65.950005
1327.000000	66.081186
1326.000000	66.206224
1325.000000	66.332074
1324.000000	66.441932
1323.000000	66.540086
1322.000000	66.644961
1321.000000	66.740681
1320.000000	66.831418
1319.000000	66.923082
1318.000000	67.015326
1317.000000	67.099921
1316.000000	67.157747
1315.000000	67.241995
1314.000000	67.326243
1313.000000	67.395773
1312.000000	67.458698
1311.000000	67.521855
1310.000000	67.576320
1309.000000	67.636000
1308.000000	67.669954
1307.000000	67.700895
1306.000000	67.739716
1305.000000	67.768340
1304.000000	67.792675
1303.000000	67.818865
1302.000000	67.825586
1301.000000	67.832308
1300.000000	67.850038
1299.000000	67.855600
1298.000000	67.866262
1297.000000	67.875764
1296.000000	67.866725
1295.000000	67.869043
1294.000000	67.874605
1293.000000	67.866378
1292.000000	67.845750
1291.000000	67.815620
1290.000000	67.783521
1289.000000	67.764400
1288.000000	67.725810
1287.000000	67.681195
1286.000000	67.643417
1285.000000	67.590110
1284.000000	67.542946
1283.000000	67.499373
1282.000000	67.447805
1281.000000	67.394382
1280.000000	67.350694
1279.000000	67.311178
1278.000000	67.268185
1277.000000	67.239793
1276.000000	67.199929
1275.000000	67.180461
1274.000000	67.164700
1273.000000	67.147318
1272.000000	67.128197
1271.000000	67.111046
1270.000000	67.099805
1269.000000	67.069560
1268.000000	67.052641
1267.000000	67.028653
1266.000000	66.996089
1265.000000	66.968045
1264.000000	66.927138
1263.000000	66.903846
1262.000000	66.880205
1261.000000	66.854016
1260.000000	66.819135
1259.000000	66.784485
1258.000000	66.754703
1257.000000	66.713796
1256.000000	66.652957
1255.000000	66.598376
1254.000000	66.555615
1253.000000	66.496282
1252.000000	66.412498
1251.000000	66.336710
1250.000000	66.266600
1249.000000	66.173893
1248.000000	66.090456
1247.000000	65.956031
1246.000000	65.839800
1245.000000	65.722989
1244.000000	65.593199
1243.000000	65.463061
1242.000000	65.301635
1241.000000	65.178682
1240.000000	65.036840
1239.000000	64.868808
1238.000000	64.723837
1237.000000	64.560905
1236.000000	64.392641
1235.000000	64.226695
1234.000000	64.065269
1233.000000	63.891559
1232.000000	63.704522
1231.000000	63.516559
1230.000000	63.352235
1229.000000	63.164735
1228.000000	62.969239
1227.000000	62.782897
1226.000000	62.597599
1225.000000	62.388892
1224.000000	62.212517
1223.000000	62.021540
1222.000000	61.832186
1221.000000	61.662763
1220.000000	61.491719
1219.000000	61.316734
1218.000000	61.149050
1217.000000	60.988898
1216.000000	60.850069
1215.000000	60.691772
1214.000000	60.557926
1213.000000	60.442158
1212.000000	60.282586
1211.000000	60.179565
1210.000000	60.046183
1209.000000	59.925895
1208.000000	59.841184
1207.000000	59.739786
1206.000000	59.678599
1205.000000	59.624365
1204.000000	59.583226
1203.000000	59.529804
1202.000000	59.484030
1201.000000	59.438951
1200.000000	59.372549
1199.000000	59.274628
1198.000000	59.146460
1197.000000	58.975647
1196.000000	58.758596
1195.000000	58.476071
1194.000000	58.096552
1193.000000	57.698838
1192.000000	57.235650
1191.000000	56.742796
1190.000000	56.295947
1189.000000	55.920020
1188.000000	55.653371
1187.000000	55.541659
1186.000000	55.539805
1185.000000	55.702969
1184.000000	56.011568
1183.000000	56.473250
1182.000000	56.962164
1181.000000	57.531386
1180.000000	58.095856
1179.000000	58.618840
1178.000000	59.086316
1177.000000	59.476266
1176.000000	59.875486
1175.000000	60.209347
1174.000000	60.539848
1173.000000	60.916703
1172.000000	61.290660
1171.000000	61.678408
1170.000000	62.070211
1169.000000	62.473835
1168.000000	62.845938
1167.000000	63.218389
1166.000000	63.650173
1165.000000	64.046959
1164.000000	64.463678
1163.000000	64.847370
1162.000000	65.228628
1161.000000	65.614985
1160.000000	65.978744
1159.000000	66.340302
1158.000000	66.652609
1157.000000	66.950199
1156.000000	67.199118
1155.000000	67.371321
1154.000000	67.516872
1153.000000	67.615489
1152.000000	67.680616
1151.000000	67.689075
1150.000000	67.711557
1149.000000	67.738558
1148.000000	67.762546
1147.000000	67.844128
1146.000000	67.978901
1145.000000	68.180307
1144.000000	68.428646
1143.000000	68.705841
1142.000000	69.020002
1141.000000	69.349344
1140.000000	69.645080
1139.000000	69.974422
1138.000000	70.325203
1137.000000	70.694641
1136.000000	71.074740
1135.000000	71.434907
1134.000000	71.764365
1133.000000	71.989759
1132.000000	72.213879
1131.000000	72.467201
1130.000000	72.705227
1129.000000	72.904084
1128.000000	73.045346
1127.000000	73.160303
1126.000000	73.261122
1125.000000	73.355220
1124.000000	73.449086
1123.000000	73.515487
1122.000000	73.572966
1121.000000	73.604022
1120.000000	73.656634
1119.000000	73.677493
1118.000000	73.685257
1117.000000	73.697425
1116.000000	73.710172
1115.000000	73.694991
1114.000000	73.688038
1113.000000	73.679115
1112.000000	73.696498
1111.000000	73.707507
1110.000000	73.708897
1109.000000	73.701944
1108.000000	73.698120
1107.000000	73.718052
1106.000000	73.726048
1105.000000	73.720602
1104.000000	73.714923
1103.000000	73.696961
1102.000000	73.712258
1101.000000	73.693137
1100.000000	73.675523
1099.000000	73.664398
1098.000000	73.665789
1097.000000	73.638672
1096.000000	73.615495
1095.000000	73.593709
1094.000000	73.585365
1093.000000	73.560218
1092.000000	73.547123
1091.000000	73.501813
1090.000000	73.468322
1089.000000	73.439120
1088.000000	73.429849
1087.000000	73.392998
1086.000000	73.354872
1085.000000	73.307012
1084.000000	73.260427
1083.000000	73.238177
1082.000000	73.188463
1081.000000	73.140603
1080.000000	73.100623
1079.000000	73.054733
1078.000000	73.019620
1077.000000	72.985086
1076.000000	72.953102
1075.000000	72.904779
1074.000000	72.847764
1073.000000	72.803380
1072.000000	72.767688
1071.000000	72.720060
1070.000000	72.680891
1069.000000	72.647632
1068.000000	72.583317
1067.000000	72.539165
1066.000000	72.491653
1065.000000	72.443561
1064.000000	72.406130
1063.000000	72.356532
1062.000000	72.300560
1061.000000	72.261160
1060.000000	72.195337
1059.000000	72.144349
1058.000000	72.086754
1057.000000	72.021859
1056.000000	71.983038
1055.000000	71.930311
1054.000000	71.867734
1053.000000	71.817208
1052.000000	71.761468
1051.000000	71.733192
1050.000000	71.714651
1049.000000	71.671426
1048.000000	71.639442
1047.000000	71.608385
1046.000000	71.576633
1045.000000	71.544302
1044.000000	71.516374
1043.000000	71.505712
1042.000000	71.482883
1041.000000	71.460981
1040.000000	71.434212
1039.000000	71.403850
1038.000000	71.379283
1037.000000	71.359003
1036.000000	71.350544
1035.000000	71.338608
1034.000000	71.320066
1033.000000	71.276726
1032.000000	71.242076
1031.000000	71.228170
1030.000000	71.211135
1029.000000	71.182628
1028.000000	71.154932
1027.000000	71.146240
1026.000000	71.126308
1025.000000	71.085517
1024.000000	71.067555
1023.000000	71.054808
1022.000000	71.054228
1021.000000	71.042408
1020.000000	71.017841
1019.000000	71.022708
1018.000000	71.023867
1017.000000	71.031399
1016.000000	71.045653
1015.000000	71.064890
1014.000000	71.097453
1013.000000	71.132334
1012.000000	71.173010
1011.000000	71.213453
1010.000000	71.254244
1009.000000	71.310332
1008.000000	71.373952
1007.000000	71.425636
1006.000000	71.477205
1005.000000	71.525992
1004.000000	71.567131
1003.000000	71.618931
1002.000000	71.653812
1001.000000	71.690431
1000.000000	71.738987
999.000000	71.755326
998.000000	71.786847
997.000000	71.808980
996.000000	71.843862
995.000000	71.885696
994.000000	71.901224
993.000000	71.908177
992.000000	71.942363
991.000000	71.966930
990.000000	72.000073
989.000000	72.021859
988.000000	72.026379
987.000000	72.055929
986.000000	72.071805
985.000000	72.094982
984.000000	72.103673
983.000000	72.142263
982.000000	72.181316
981.000000	72.185256
980.000000	72.185603
979.000000	72.203102
978.000000	72.199162
977.000000	72.221759
976.000000	72.227090
975.000000	72.255713
974.000000	72.271241
973.000000	72.312148
972.000000	72.315161
971.000000	72.332660
970.000000	72.382258
969.000000	72.422818
968.000000	72.458394
967.000000	72.498490
966.000000	72.536732
965.000000	72.608927
964.000000	72.688424
963.000000	72.754709
962.000000	72.822733
961.000000	72.883109
960.000000	72.978481
959.000000	73.073622
958.000000	73.141762
957.000000	73.230876
956.000000	73.316746
955.000000	73.418956
954.000000	73.485473
953.000000	73.568446
952.000000	73.671815
951.000000	73.771475
950.000000	73.839383
949.000000	73.945185
948.000000	74.014136
947.000000	74.127007
946.000000	74.215890
945.000000	74.265604
944.000000	74.350083
943.000000	74.470834
942.000000	74.537004
941.000000	74.587066
940.000000	74.685220
939.000000	74.732268
938.000000	74.796005
937.000000	74.851745
936.000000	74.919421
935.000000	74.976204
934.000000	75.086062
933.000000	75.115265
932.000000	75.141223
931.000000	75.187460
930.000000	75.273446
929.000000	75.327680
928.000000	75.332431
927.000000	75.326869
926.000000	75.361055
925.000000	75.399876
924.000000	75.414593
923.000000	75.421546
922.000000	75.426065
921.000000	75.415288
920.000000	75.425718
919.000000	75.479372
918.000000	75.477981
917.000000	75.453530
916.000000	75.427340
915.000000	75.406829
914.000000	75.396399
913.000000	75.396399
912.000000	75.385158
911.000000	75.372991
910.000000	75.387244
909.000000	75.412507
908.000000	75.452023
907.000000	75.458165
906.000000	75.500347
905.000000	75.552842
904.000000	75.602325
903.000000	75.669885
902.000000	75.721222
901.000000	75.762129
900.000000	75.742197
899.000000	75.786580
898.000000	75.841857
897.000000	75.880562
896.000000	75.911503
895.000000	75.962608
894.000000	75.994940
893.000000	75.988682
892.000000	75.941169
891.000000	75.955076
890.000000	75.944530
889.000000	75.915327
888.000000	75.782988
887.000000	75.764794
886.000000	75.728175
885.000000	75.597458
884.000000	75.421314
883.000000	75.288048
882.000000	75.070765
881.000000	74.979333
880.000000	74.788704
879.000000	74.516261
878.000000	74.293416
877.000000	73.998491
876.000000	73.753165
875.000000	73.397633
874.000000	73.110589
873.000000	72.747061
872.000000	72.435913
871.000000	71.896473
870.000000	71.456925
869.000000	70.871248
868.000000	70.447344
867.000000	69.800249
866.000000	69.245976
865.000000	68.987670
864.000000	68.994855
863.000000	69.074468
862.000000	69.121748
861.000000	69.141680
860.000000	69.169492
859.000000	69.237864
858.000000	71.223767
857.000000	71.197500
856.000000	71.127700
855.000000	71.346100
854.000000	70.966500
853.000000	70.950000
852.000000	71.020200
851.000000	71.088700
850.000000	71.157400
849.000000	71.516000
848.000000	71.273500
847.000000	71.385100
846.000000	71.423100
845.000000	71.349000
844.000000	71.206600
843.000000	71.242600
842.000000	71.075200
841.000000	71.317100
840.000000	71.063800
839.000000	71.149200
838.000000	70.876500
837.000000	71.002500
836.000000	70.814200
835.000000	70.857000
834.000000	70.912200
833.000000	70.889100
832.000000	70.764200
831.000000	70.620100
830.000000	70.546300
829.000000	70.425400
828.000000	70.382800
827.000000	70.380700
826.000000	70.313000
825.000000	70.356400
824.000000	70.336900
823.000000	70.166200
822.000000	70.102700
821.000000	70.161800
820.000000	70.069400
819.000000	69.981800
818.000000	69.923100
817.000000	69.987500
816.000000	69.760500
815.000000	69.727200
814.000000	69.606400
813.000000	69.457500
812.000000	69.507700
811.000000	69.409700
810.000000	69.255500
809.000000	69.234300
808.000000	69.137200
807.000000	69.119500
806.000000	69.009800
805.000000	68.859700
804.000000	68.912200
803.000000	68.848700
802.000000	68.630400
801.000000	68.513100
800.000000	68.535200
799.000000	68.283700
798.000000	68.147600
797.000000	68.130400
796.000000	67.869400
795.000000	67.733100
794.000000	67.621700
793.000000	67.561700
792.000000	67.338900
791.000000	67.236500
790.000000	67.099900
789.000000	66.946100
788.000000	66.845600
787.000000	66.696800
786.000000	66.466500
785.000000	66.401600
784.000000	66.354000
783.000000	66.200400
782.000000	66.053400
781.000000	65.812600
780.000000	65.673200
779.000000	65.560200
778.000000	65.426200
777.000000	65.213600
776.000000	65.036100
775.000000	65.009900
774.000000	64.847600
773.000000	64.645100
772.000000	64.510700
771.000000	64.326400
770.000000	64.204500
769.000000	64.082700
768.000000	64.023100
767.000000	63.942900
766.000000	63.812600
765.000000	63.707100
764.000000	63.536700
763.000000	63.407300
762.000000	63.334900
761.000000	63.280800
760.000000	63.175000
759.000000	63.099000
758.000000	62.984600
757.000000	62.916000
756.000000	62.805900
755.000000	62.619100
754.000000	62.545300
753.000000	62.430300
752.000000	62.309700
751.000000	62.250600
750.000000	62.222800
749.000000	62.196500
748.000000	62.096400
747.000000	62.078600
746.000000	62.052900
745.000000	61.904300
744.000000	61.804600
743.000000	61.771800
742.000000	61.694900
741.000000	61.597700
740.000000	61.561600
739.000000	61.477900
738.000000	61.414800
737.000000	61.324800
736.000000	61.209100
735.000000	61.119900
734.000000	61.027900
733.000000	60.923400
732.000000	60.794900
731.000000	60.712200
730.000000	60.637100
729.000000	60.551000
728.000000	60.544000
727.000000	60.450200
726.000000	60.274600
725.000000	60.233400
724.000000	60.153000
723.000000	60.052400
722.000000	59.933100
721.000000	59.812900
720.000000	59.722600
719.000000	59.587600
718.000000	59.418900
717.000000	59.320100
716.000000	59.199500
715.000000	59.038200
714.000000	58.889300
713.000000	58.783200
712.000000	58.646700
711.000000	58.470000
710.000000	58.328900
709.000000	58.225000
708.000000	58.115900
707.000000	57.936700
706.000000	57.753700
705.000000	57.578700
704.000000	57.432300
703.000000	57.303800
702.000000	57.198200
701.000000	57.056900
700.000000	56.914900
699.000000	56.781300
698.000000	56.622800
697.000000	56.476800
696.000000	56.377700
695.000000	56.256400
694.000000	56.052800
693.000000	55.906100
692.000000	55.710400
691.000000	55.606900
690.000000	55.481700
689.000000	55.329600
688.000000	55.176400
687.000000	55.027700
686.000000	54.935700
685.000000	54.802400
684.000000	54.782400
683.000000	54.746800
682.000000	54.702700
681.000000	54.680400
680.000000	54.684200
679.000000	54.595200
678.000000	54.566800
677.000000	54.610300
676.000000	54.695500
675.000000	54.669600
674.000000	54.696500
673.000000	54.738900
672.000000	54.771500
671.000000	54.758000
670.000000	54.746100
669.000000	54.803000
668.000000	54.879900
667.000000	54.850900
666.000000	54.861800
665.000000	54.868900
664.000000	54.887900
663.000000	54.902200
662.000000	54.884100
661.000000	54.882800
660.000000	54.852100
659.000000	54.790700
658.000000	54.724800
657.000000	54.636100
656.000000	54.593600
655.000000	54.451200
654.000000	54.258600
653.000000	54.112900
652.000000	53.915600
651.000000	53.647600
650.000000	53.364800
649.000000	53.058600
648.000000	52.686700
647.000000	52.342400
646.000000	51.942400
645.000000	51.553100
644.000000	51.174500
643.000000	50.824800
642.000000	50.467500
641.000000	50.204000
640.000000	49.865200
639.000000	49.604900
638.000000	49.383500
637.000000	49.164000
636.000000	49.019400
635.000000	48.953300
634.000000	48.901600
633.000000	48.874000
632.000000	48.959600
631.000000	48.986000
630.000000	49.096500
629.000000	49.278700
628.000000	49.513800
627.000000	49.795200
626.000000	50.104500
625.000000	50.491800
624.000000	50.909000
623.000000	51.401100
622.000000	51.953800
621.000000	52.579500
620.000000	53.254300
619.000000	53.976500
618.000000	54.662900
617.000000	55.443800
616.000000	56.207000
615.000000	56.982900
614.000000	57.809600
613.000000	58.553100
612.000000	59.276800
611.000000	59.969400
610.000000	60.655700
609.000000	61.302900
608.000000	61.846300
607.000000	62.336100
606.000000	62.860000
605.000000	63.281700
604.000000	63.708900
603.000000	64.070800
602.000000	64.439200
601.000000	64.801200
600.000000	65.091700
599.000000	65.417800
598.000000	65.742500
597.000000	66.049200
596.000000	66.366500
595.000000	66.642900
594.000000	67.053300
593.000000	67.326600
592.000000	67.669200
591.000000	68.003400
590.000000	68.250000
589.000000	68.516000
588.000000	68.826600
587.000000	69.047800
586.000000	69.197000
585.000000	69.336500
584.000000	69.423900
583.000000	69.539300
582.000000	69.632500
581.000000	69.659800
580.000000	69.670600
579.000000	69.670400
578.000000	69.629600
577.000000	69.638000
576.000000	69.656700
575.000000	69.729300
574.000000	69.774000
573.000000	69.875500
572.000000	69.901700
571.000000	69.960000
570.000000	70.062800
569.000000	70.131600
568.000000	70.218400
567.000000	70.247300
566.000000	70.263100
565.000000	70.299900
564.000000	70.257400
563.000000	70.174800
562.000000	70.093200
561.000000	70.019200
560.000000	69.860600
559.000000	69.660800
558.000000	69.492000
557.000000	69.320400
556.000000	69.154100
555.000000	68.922300
554.000000	68.717000
553.000000	68.470200
552.000000	68.269600
551.000000	67.976300
550.000000	67.743100
549.000000	67.399400
548.000000	67.061300
547.000000	66.677800
546.000000	66.219800
545.000000	65.760800
544.000000	65.190400
543.000000	64.575300
542.000000	63.931200
541.000000	63.193600
540.000000	62.415800
539.000000	61.589200
538.000000	60.693100
537.000000	59.803500
536.000000	58.838000
535.000000	57.831100
534.000000	56.813900
533.000000	55.753000
532.000000	54.689100
531.000000	53.620400
530.000000	52.537100
529.000000	51.470800
528.000000	50.400400
527.000000	49.373300
526.000000	48.317700
525.000000	47.302100
524.000000	46.296500
523.000000	45.282900
522.000000	44.322500
521.000000	43.370800
520.000000	42.413800
519.000000	41.509500
518.000000	40.617600
517.000000	39.769400
516.000000	38.961300
515.000000	38.151700
514.000000	37.355300
513.000000	36.577100
512.000000	35.825100
511.000000	35.090500
510.000000	34.411500
509.000000	33.733900
508.000000	33.098600
507.000000	32.490500
506.000000	31.904400
505.000000	31.337500
504.000000	30.762000
503.000000	30.202400
502.000000	29.677200
501.000000	29.161400
500.000000	28.672500
499.000000	28.222500
498.000000	27.775800
497.000000	27.356600
496.000000	26.951200
495.000000	26.574700
494.000000	26.204800
493.000000	25.831300
492.000000	25.513100
491.000000	25.214700
490.000000	24.932300
489.000000	24.644000
488.000000	24.375800
487.000000	24.131500
486.000000	23.876800
485.000000	23.627100
484.000000	23.375100
483.000000	23.098500
482.000000	22.823800
481.000000	22.521400
480.000000	22.199500
479.000000	21.869500
478.000000	21.526000
477.000000	21.194700
476.000000	20.840300
475.000000	20.483800
474.000000	20.125800
473.000000	19.756800
472.000000	19.399500
471.000000	19.049100
470.000000	18.716500
469.000000	18.398900
468.000000	18.103600
467.000000	17.834400
466.000000	17.560600
465.000000	17.316300
464.000000	17.084300
463.000000	16.884200
462.000000	16.700200
461.000000	16.534600
460.000000	16.413500
459.000000	16.288100
458.000000	16.155000
457.000000	16.065000
456.000000	15.994000
455.000000	15.941100
454.000000	15.895500
453.000000	15.855200
452.000000	15.844000
451.000000	15.851100
450.000000	15.852700
449.000000	15.846500
448.000000	15.862300
447.000000	15.874500
446.000000	15.885700
445.000000	15.900700
444.000000	15.906800
443.000000	15.911700
442.000000	15.913200
441.000000	15.891300
440.000000	15.860300
439.000000	15.819500
438.000000	15.764700
437.000000	15.711400
436.000000	15.650700
435.000000	15.588400
434.000000	15.524600
433.000000	15.457100
432.000000	15.373100
431.000000	15.283500
430.000000	15.185200
429.000000	15.086500
428.000000	15.004700
427.000000	14.886700
426.000000	14.774400
425.000000	14.670700
424.000000	14.542100
423.000000	14.427300
422.000000	14.303200
421.000000	14.154800
420.000000	14.014400
419.000000	13.879200
418.000000	13.727000
417.000000	13.563700
416.000000	13.400900
415.000000	13.222800
414.000000	13.044700
413.000000	12.861800
412.000000	12.674400
411.000000	12.470100
410.000000	12.258500
409.000000	12.040000
408.000000	11.818900
407.000000	11.603900
406.000000	11.383800
405.000000	11.166800
404.000000	10.936200
403.000000	10.681400
402.000000	10.440900
401.000000	10.214700
400.000000	9.994400
399.000000	9.767300
398.000000	9.537200
397.000000	9.317500
396.000000	9.087700
395.000000	8.870400
394.000000	8.677400
393.000000	8.451000
392.000000	8.236500
391.000000	8.053300
390.000000	7.880400
389.000000	7.691700
388.000000	7.553300
387.000000	7.416100
386.000000	7.257900
385.000000	7.111300
384.000000	6.976600
383.000000	6.872300
382.000000	6.770900
381.000000	6.667200
380.000000	6.590900
379.000000	6.505000
378.000000	6.421400
377.000000	6.370700
376.000000	6.320900
375.000000	6.020200
374.000000	5.635100
373.000000	5.746100
372.000000	5.847500
371.000000	5.900700
370.000000	5.891700
369.000000	5.878200
368.000000	5.802800
367.000000	5.808300
366.000000	5.707600
365.000000	5.785000
364.000000	5.828700
363.000000	5.714400
362.000000	5.760500
361.000000	5.697300
360.000000	5.733300
359.000000	5.788400
358.000000	5.766200
357.000000	5.876200
356.000000	5.776300
355.000000	5.706000
354.000000	5.760300
353.000000	5.725300
352.000000	5.779200
351.000000	5.700600
350.000000	5.725200
349.000000	5.655100
348.000000	5.673300
347.000000	5.692500
346.000000	5.836300
345.000000	5.749000
344.000000	5.730900
343.000000	5.727300
342.000000	5.743500
341.000000	5.623200
340.000000	5.737800
339.000000	5.651900
338.000000	5.467700
337.000000	5.528500
336.000000	5.537900
335.000000	5.714200
334.000000	5.944700
333.000000	5.590400
332.000000	5.676400
331.000000	5.569500
330.000000	5.755100
329.000000	5.586100
328.000000	5.711800
327.000000	5.869800
326.000000	5.803900
325.000000	5.711500
324.000000	5.879500
323.000000	6.141100
322.000000	6.181200
321.000000	6.483100
320.000000	6.408400
319.000000	6.112400
318.000000	5.612700
317.000000	6.477000
316.000000	5.650800
315.000000	5.697700
314.000000	5.635500
313.000000	5.633000
312.000000	5.558100
311.000000	5.619100
310.000000	5.646600
309.000000	5.611700
308.000000	5.655700
307.000000	5.639300
306.000000	5.674000
305.000000	5.660800
304.000000	5.653500
303.000000	5.696700
302.000000	5.687400
301.000000	5.694800
300.000000	5.729600
299.000000	5.677300
298.000000	5.644500
297.000000	5.700600
296.000000	5.742600
295.000000	5.700000
294.000000	5.675700
293.000000	5.684600
292.000000	5.638400
291.000000	5.766800
290.000000	5.685000
289.000000	5.684800
288.000000	5.776200
287.000000	5.776100
286.000000	5.809500
285.000000	5.828100
284.000000	5.833900
283.000000	5.788200
282.000000	5.786000
281.000000	5.823100
280.000000	5.817600
279.000000	5.800300
278.000000	5.827800
277.000000	5.880700
276.000000	5.913800
275.000000	5.875200
274.000000	5.884300
273.000000	5.903400
272.000000	5.964600
271.000000	5.956800
270.000000	5.966600
269.000000	5.967400
268.000000	5.985300
267.000000	6.040100
266.000000	6.090000
265.000000	6.082300
264.000000	6.122100
263.000000	6.157800
262.000000	6.254300
261.000000	6.270700
260.000000	6.227700
259.000000	6.211900
258.000000	6.268500
257.000000	6.288800
256.000000	6.353100
255.000000	6.285300
254.000000	6.363300
253.000000	6.395600
252.000000	6.420500
251.000000	6.445000
250.000000	6.446700
