PE UV       SUBTECH     SPECTRUM    ASCII       PEDS        4.00        
   -1
CICIMAUCR0201-2.ASC
24/06/06
12:51:51.00
24/06/06
12:51:51.00
Vinicio Soto Monge
C. cupreomarginata. Sex F. Ventral
250,000000
1
Lambda 1050
1050L1511233
PerkinElmer UV WinLab 6.3.2.0749 / 2.02.05 Lambda 900 UV/VIS/NIR, Aug  7 2015 09:38:08

0
0
3350/servo 860,8/2
0
0
UV/VIS
1
1
1
DoubleDePol,CommonBeamDepol,RBeamAtt,SBeamAtt,60mm sphere, WB InGaAs Detector
0
0
0
0
Program
Program
3350/servo 860,8/2
3350/0,2 860,8/0,2
3350/0,2 860,8/0,2
0
15.00
 
 
 
0
 
860,8
319,2
860,8
Front
100
on
S:100 R:100
0
0
0
0
 
0
 
 
 
0
 
 
0
0
0
0
0
 
 
 
 
0
0


0
0
#HDR
-1
-1
#GR
nm
%R
1.0
0.0
2500,000000
-1,000000
2251
8
55,450300
4,194700
#DATA
2482.000000	6.141096
2481.000000	6.149992
2480.000000	6.157898
2479.000000	6.144281
2478.000000	6.161193
2477.000000	6.076194
2476.000000	6.100684
2475.000000	6.134617
2474.000000	6.143512
2473.000000	6.119243
2472.000000	6.092667
2471.000000	6.073449
2470.000000	6.107712
2469.000000	6.101342
2468.000000	6.131323
2467.000000	6.111116
2466.000000	6.098048
2465.000000	6.138131
2464.000000	6.107492
2463.000000	6.109798
2462.000000	6.123855
2461.000000	6.146038
2460.000000	6.166354
2459.000000	6.152407
2458.000000	6.150321
2457.000000	6.192491
2456.000000	6.206987
2455.000000	6.239932
2454.000000	6.253769
2453.000000	6.258930
2452.000000	6.256075
2451.000000	6.304944
2450.000000	6.307140
2449.000000	6.315157
2448.000000	6.364026
2447.000000	6.390272
2446.000000	6.435297
2445.000000	6.441666
2444.000000	6.463410
2443.000000	6.487790
2442.000000	6.525018
2441.000000	6.555437
2440.000000	6.581464
2439.000000	6.606832
2438.000000	6.634725
2437.000000	6.615068
2436.000000	6.667451
2435.000000	6.686998
2434.000000	6.686779
2433.000000	6.694686
2432.000000	6.739711
2431.000000	6.783747
2430.000000	6.781222
2429.000000	6.811312
2428.000000	6.819218
2427.000000	6.830859
2426.000000	6.854031
2425.000000	6.856666
2424.000000	6.883571
2423.000000	6.908280
2422.000000	6.905864
2421.000000	6.917176
2420.000000	6.944959
2419.000000	6.971535
2418.000000	6.973073
2417.000000	6.984164
2416.000000	7.026334
2415.000000	7.031715
2414.000000	7.014034
2413.000000	7.035888
2412.000000	7.047309
2411.000000	7.078497
2410.000000	7.089699
2409.000000	7.083659
2408.000000	7.094750
2407.000000	7.109356
2406.000000	7.112321
2405.000000	7.123632
2404.000000	7.144607
2403.000000	7.155809
2402.000000	7.156468
2401.000000	7.174917
2400.000000	7.190511
2399.000000	7.185240
2398.000000	7.194464
2397.000000	7.215769
2396.000000	7.229276
2395.000000	7.231473
2394.000000	7.234108
2393.000000	7.253436
2392.000000	7.282099
2391.000000	7.288248
2390.000000	7.294618
2389.000000	7.297363
2388.000000	7.303074
2387.000000	7.305600
2386.000000	7.312298
2385.000000	7.329759
2384.000000	7.325916
2383.000000	7.299779
2382.000000	7.291763
2381.000000	7.296595
2380.000000	7.312738
2379.000000	7.317789
2378.000000	7.313287
2377.000000	7.307137
2376.000000	7.304721
2375.000000	7.303733
2374.000000	7.292861
2373.000000	7.280781
2372.000000	7.269579
2371.000000	7.254864
2370.000000	7.249373
2369.000000	7.243223
2368.000000	7.224554
2367.000000	7.209839
2366.000000	7.203360
2365.000000	7.203030
2364.000000	7.175137
2363.000000	7.157126
2362.000000	7.150537
2361.000000	7.141532
2360.000000	7.131210
2359.000000	7.093872
2358.000000	7.069822
2357.000000	7.065319
2356.000000	7.052910
2355.000000	7.040720
2354.000000	7.032484
2353.000000	7.020184
2352.000000	7.015572
2351.000000	7.015133
2350.000000	7.024467
2349.000000	7.028860
2348.000000	7.022490
2347.000000	7.020184
2346.000000	7.018098
2345.000000	7.027432
2344.000000	7.061915
2343.000000	7.084208
2342.000000	7.074873
2341.000000	7.063562
2340.000000	7.083000
2339.000000	7.115506
2338.000000	7.112650
2337.000000	7.125060
2336.000000	7.126817
2335.000000	7.105842
2334.000000	7.106171
2333.000000	7.093103
2332.000000	7.091785
2331.000000	7.085965
2330.000000	7.071798
2329.000000	7.057083
2328.000000	7.047529
2327.000000	7.038853
2326.000000	7.014144
2325.000000	6.994158
2324.000000	6.979332
2323.000000	6.963518
2322.000000	6.928047
2321.000000	6.898507
2320.000000	6.862377
2319.000000	6.840523
2318.000000	6.820426
2317.000000	6.769471
2316.000000	6.743335
2315.000000	6.705118
2314.000000	6.682496
2313.000000	6.655042
2312.000000	6.618033
2311.000000	6.583221
2310.000000	6.557634
2309.000000	6.533584
2308.000000	6.501956
2307.000000	6.508545
2306.000000	6.491743
2305.000000	6.476369
2304.000000	6.467144
2303.000000	6.471537
2302.000000	6.465058
2301.000000	6.493281
2300.000000	6.517550
2299.000000	6.550825
2298.000000	6.571141
2297.000000	6.573008
2296.000000	6.606173
2295.000000	6.642522
2294.000000	6.664705
2293.000000	6.679641
2292.000000	6.701714
2291.000000	6.726862
2290.000000	6.747288
2289.000000	6.751791
2288.000000	6.753218
2287.000000	6.756403
2286.000000	6.769801
2285.000000	6.765079
2284.000000	6.752010
2283.000000	6.742676
2282.000000	6.743994
2281.000000	6.713574
2280.000000	6.706546
2279.000000	6.696662
2278.000000	6.667341
2277.000000	6.666023
2276.000000	6.658226
2275.000000	6.633408
2274.000000	6.620998
2273.000000	6.630003
2272.000000	6.623853
2271.000000	6.624402
2270.000000	6.640655
2269.000000	6.650649
2268.000000	6.642413
2267.000000	6.686559
2266.000000	6.697541
2265.000000	6.738613
2264.000000	6.769471
2263.000000	6.818340
2262.000000	6.880497
2261.000000	6.927279
2260.000000	7.017000
2259.000000	7.083878
2258.000000	7.148121
2257.000000	7.242455
2256.000000	7.330418
2255.000000	7.403776
2254.000000	7.490422
2253.000000	7.600240
2252.000000	7.704017
2251.000000	7.787478
2250.000000	7.864131
2249.000000	7.937379
2248.000000	8.008211
2247.000000	8.093649
2246.000000	8.147350
2245.000000	8.198085
2244.000000	8.290881
2243.000000	8.327560
2242.000000	8.384665
2241.000000	8.413986
2240.000000	8.481304
2239.000000	8.512712
2238.000000	8.558835
2237.000000	8.598040
2236.000000	8.642736
2235.000000	8.664260
2234.000000	8.676010
2233.000000	8.711811
2232.000000	8.724989
2231.000000	8.726636
2230.000000	8.749588
2229.000000	8.750906
2228.000000	8.790769
2227.000000	8.782314
2226.000000	8.770124
2225.000000	8.770453
2224.000000	8.767378
2223.000000	8.750247
2222.000000	8.740363
2221.000000	8.720816
2220.000000	8.705002
2219.000000	8.703355
2218.000000	8.665029
2217.000000	8.681721
2216.000000	8.653388
2215.000000	8.634829
2214.000000	8.637684
2213.000000	8.607594
2212.000000	8.610230
2211.000000	8.587278
2210.000000	8.573002
2209.000000	8.551368
2208.000000	8.548073
2207.000000	8.518642
2206.000000	8.529404
2205.000000	8.526000
2204.000000	8.520729
2203.000000	8.499973
2202.000000	8.484489
2201.000000	8.499314
2200.000000	8.471311
2199.000000	8.486685
2198.000000	8.469993
2197.000000	8.464941
2196.000000	8.455168
2195.000000	8.448359
2194.000000	8.442978
2193.000000	8.433753
2192.000000	8.427933
2191.000000	8.436828
2190.000000	8.428702
2189.000000	8.413766
2188.000000	8.414316
2187.000000	8.429800
2186.000000	8.412339
2185.000000	8.395647
2184.000000	8.383237
2183.000000	8.382688
2182.000000	8.374671
2181.000000	8.380382
2180.000000	8.367094
2179.000000	8.370608
2178.000000	8.354355
2177.000000	8.359297
2176.000000	8.349743
2175.000000	8.342824
2174.000000	8.358309
2173.000000	8.366655
2172.000000	8.348425
2171.000000	8.347986
2170.000000	8.357540
2169.000000	8.357540
2168.000000	8.352488
2167.000000	8.372475
2166.000000	8.396964
2165.000000	8.399380
2164.000000	8.410362
2163.000000	8.427164
2162.000000	8.448579
2161.000000	8.448908
2160.000000	8.441550
2159.000000	8.461098
2158.000000	8.506892
2157.000000	8.495800
2156.000000	8.523254
2155.000000	8.535774
2154.000000	8.566083
2153.000000	8.584093
2152.000000	8.598260
2151.000000	8.638123
2150.000000	8.652070
2149.000000	8.674143
2148.000000	8.705002
2147.000000	8.744317
2146.000000	8.761558
2145.000000	8.794723
2144.000000	8.810756
2143.000000	8.820969
2142.000000	8.835575
2141.000000	8.855232
2140.000000	8.882467
2139.000000	8.889276
2138.000000	8.899598
2137.000000	8.920683
2136.000000	8.940341
2135.000000	8.948467
2134.000000	8.972737
2133.000000	8.988111
2132.000000	9.006231
2131.000000	9.005243
2130.000000	9.030391
2129.000000	9.026218
2128.000000	9.026437
2127.000000	9.044118
2126.000000	9.055978
2125.000000	9.055759
2124.000000	9.054990
2123.000000	9.047742
2122.000000	9.046314
2121.000000	9.056637
2120.000000	9.043569
2119.000000	9.041922
2118.000000	9.064654
2117.000000	9.046095
2116.000000	9.026877
2115.000000	9.028524
2114.000000	9.017982
2113.000000	9.004254
2112.000000	9.016224
2111.000000	8.993932
2110.000000	8.986574
2109.000000	8.984158
2108.000000	8.971639
2107.000000	8.957911
2106.000000	8.933203
2105.000000	8.915851
2104.000000	8.921342
2103.000000	8.930457
2102.000000	8.914753
2101.000000	8.903222
2100.000000	8.894437
2099.000000	8.883455
2098.000000	8.877196
2097.000000	8.865006
2096.000000	8.855781
2095.000000	8.849412
2094.000000	8.838211
2093.000000	8.842274
2092.000000	8.836563
2091.000000	8.815478
2090.000000	8.817675
2089.000000	8.821079
2088.000000	8.810427
2087.000000	8.798347
2086.000000	8.802081
2085.000000	8.790550
2084.000000	8.777921
2083.000000	8.775395
2082.000000	8.767049
2081.000000	8.753651
2080.000000	8.741022
2079.000000	8.722902
2078.000000	8.714007
2077.000000	8.695668
2076.000000	8.676999
2075.000000	8.657232
2074.000000	8.641088
2073.000000	8.632303
2072.000000	8.610449
2071.000000	8.586619
2070.000000	8.552136
2069.000000	8.527757
2068.000000	8.512053
2067.000000	8.481304
2066.000000	8.456595
2065.000000	8.445504
2064.000000	8.429910
2063.000000	8.406738
2062.000000	8.369400
2061.000000	8.355124
2060.000000	8.344472
2059.000000	8.337773
2058.000000	8.312405
2057.000000	8.307244
2056.000000	8.315041
2055.000000	8.312185
2054.000000	8.307573
2053.000000	8.310868
2052.000000	8.332721
2051.000000	8.361384
2050.000000	8.375879
2049.000000	8.397623
2048.000000	8.440672
2047.000000	8.459890
2046.000000	8.501950
2045.000000	8.536213
2044.000000	8.568389
2043.000000	8.625934
2042.000000	8.669311
2041.000000	8.713238
2040.000000	8.771222
2039.000000	8.810207
2038.000000	8.835795
2037.000000	8.872034
2036.000000	8.915961
2035.000000	8.961755
2034.000000	8.986464
2033.000000	9.005353
2032.000000	9.047962
2031.000000	9.075087
2030.000000	9.081127
2029.000000	9.104847
2028.000000	9.129776
2027.000000	9.152727
2026.000000	9.197094
2025.000000	9.208075
2024.000000	9.223560
2023.000000	9.226195
2022.000000	9.242009
2021.000000	9.256285
2020.000000	9.272977
2019.000000	9.282422
2018.000000	9.283300
2017.000000	9.300761
2016.000000	9.306801
2015.000000	9.310645
2014.000000	9.309656
2013.000000	9.321956
2012.000000	9.313830
2011.000000	9.303726
2010.000000	9.285606
2009.000000	9.294062
2008.000000	9.278468
2007.000000	9.274844
2006.000000	9.275723
2005.000000	9.260129
2004.000000	9.250355
2003.000000	9.240252
2002.000000	9.221803
2001.000000	9.193799
2000.000000	9.163709
1999.000000	9.133290
1998.000000	9.133180
1997.000000	9.102321
1996.000000	9.075306
1995.000000	9.067839
1994.000000	9.026328
1993.000000	8.994590
1992.000000	8.955495
1991.000000	8.939901
1990.000000	8.908384
1989.000000	8.875658
1988.000000	8.828876
1987.000000	8.824483
1986.000000	8.795492
1985.000000	8.751565
1984.000000	8.717631
1983.000000	8.673594
1982.000000	8.633621
1981.000000	8.608253
1980.000000	8.575747
1979.000000	8.536432
1978.000000	8.526219
1977.000000	8.478449
1976.000000	8.447480
1975.000000	8.403004
1974.000000	8.374452
1973.000000	8.359736
1972.000000	8.321740
1971.000000	8.303839
1970.000000	8.273530
1969.000000	8.235313
1968.000000	8.200611
1967.000000	8.186554
1966.000000	8.159320
1965.000000	8.130218
1964.000000	8.085852
1963.000000	8.064767
1962.000000	8.031822
1961.000000	8.006783
1960.000000	7.980427
1959.000000	7.964504
1958.000000	7.922773
1957.000000	7.910144
1956.000000	7.879834
1955.000000	7.874893
1954.000000	7.867425
1953.000000	7.821082
1952.000000	7.790773
1951.000000	7.773421
1950.000000	7.743112
1949.000000	7.712912
1948.000000	7.699844
1947.000000	7.691388
1946.000000	7.661957
1945.000000	7.644496
1944.000000	7.636369
1943.000000	7.622423
1942.000000	7.604632
1941.000000	7.622313
1940.000000	7.576409
1939.000000	7.587611
1938.000000	7.597274
1937.000000	7.570040
1936.000000	7.569161
1935.000000	7.571797
1934.000000	7.591234
1933.000000	7.566416
1932.000000	7.610233
1931.000000	7.636479
1930.000000	7.648669
1929.000000	7.684250
1928.000000	7.674366
1927.000000	7.708629
1926.000000	7.729824
1925.000000	7.778144
1924.000000	7.807245
1923.000000	7.854027
1922.000000	7.908826
1921.000000	7.933096
1920.000000	7.991848
1919.000000	8.045549
1918.000000	8.114075
1917.000000	8.163273
1916.000000	8.231250
1915.000000	8.291430
1914.000000	8.347547
1913.000000	8.428811
1912.000000	8.531710
1911.000000	8.578053
1910.000000	8.649215
1909.000000	8.750576
1908.000000	8.865775
1907.000000	8.938144
1906.000000	9.065423
1905.000000	9.170298
1904.000000	9.294831
1903.000000	9.434299
1902.000000	9.545544
1901.000000	9.689624
1900.000000	9.831509
1899.000000	9.952857
1898.000000	10.111762
1897.000000	10.278575
1896.000000	10.445278
1895.000000	10.593641
1894.000000	10.767152
1893.000000	10.958674
1892.000000	11.147120
1891.000000	11.379384
1890.000000	11.584413
1889.000000	11.801412
1888.000000	12.036092
1887.000000	12.276812
1886.000000	12.527415
1885.000000	12.783838
1884.000000	13.114828
1883.000000	13.454383
1882.000000	13.770437
1881.000000	14.096924
1880.000000	14.446583
1879.000000	14.756597
1878.000000	15.068588
1877.000000	15.430217
1876.000000	15.753300
1875.000000	16.057494
1874.000000	16.383102
1873.000000	16.677083
1872.000000	16.956019
1871.000000	17.223095
1870.000000	17.485888
1869.000000	17.704644
1868.000000	17.922302
1867.000000	18.116240
1866.000000	18.261089
1865.000000	18.389355
1864.000000	18.500491
1863.000000	18.639739
1862.000000	18.768994
1861.000000	18.881337
1860.000000	19.003564
1859.000000	19.099654
1858.000000	19.173891
1857.000000	19.227481
1856.000000	19.276130
1855.000000	19.301828
1854.000000	19.331478
1853.000000	19.377162
1852.000000	19.393855
1851.000000	19.402640
1850.000000	19.420650
1849.000000	19.437233
1848.000000	19.429436
1847.000000	19.424713
1846.000000	19.385399
1845.000000	19.338397
1844.000000	19.311821
1843.000000	19.312151
1842.000000	19.331588
1841.000000	19.342131
1840.000000	19.315225
1839.000000	19.273495
1838.000000	19.268004
1837.000000	19.227921
1836.000000	19.176856
1835.000000	19.135454
1834.000000	19.088013
1833.000000	19.038266
1832.000000	19.009055
1831.000000	18.973364
1830.000000	18.920103
1829.000000	18.876505
1828.000000	18.824342
1827.000000	18.762405
1826.000000	18.697393
1825.000000	18.646108
1824.000000	18.616128
1823.000000	18.577692
1822.000000	18.580438
1821.000000	18.592957
1820.000000	18.542441
1819.000000	18.496867
1818.000000	18.475782
1817.000000	18.458540
1816.000000	18.448437
1815.000000	18.431196
1814.000000	18.414943
1813.000000	18.396054
1812.000000	18.392320
1811.000000	18.375848
1810.000000	18.338949
1809.000000	18.304357
1808.000000	18.279099
1807.000000	18.254939
1806.000000	18.214856
1805.000000	18.162363
1804.000000	18.128759
1803.000000	18.099547
1802.000000	18.079561
1801.000000	18.046615
1800.000000	17.989840
1799.000000	17.937896
1798.000000	17.902755
1797.000000	17.880242
1796.000000	17.846309
1795.000000	17.792827
1794.000000	17.754611
1793.000000	17.725729
1792.000000	17.683779
1791.000000	17.641609
1790.000000	17.600208
1789.000000	17.570338
1788.000000	17.532560
1787.000000	17.489622
1786.000000	17.455139
1785.000000	17.407918
1784.000000	17.346859
1783.000000	17.316330
1782.000000	17.265924
1781.000000	17.209478
1780.000000	17.163025
1779.000000	17.096585
1778.000000	17.042555
1777.000000	16.984462
1776.000000	16.925051
1775.000000	16.854328
1774.000000	16.780861
1773.000000	16.699925
1772.000000	16.614817
1771.000000	16.528171
1770.000000	16.440976
1769.000000	16.360919
1768.000000	16.289867
1767.000000	16.203002
1766.000000	16.140186
1765.000000	16.084838
1764.000000	16.027953
1763.000000	16.001157
1762.000000	15.987650
1761.000000	15.992482
1760.000000	16.018179
1759.000000	16.053101
1758.000000	16.089890
1757.000000	16.129863
1756.000000	16.165664
1755.000000	16.204100
1754.000000	16.225075
1753.000000	16.247697
1752.000000	16.266915
1751.000000	16.284047
1750.000000	16.282509
1749.000000	16.239241
1748.000000	16.194106
1747.000000	16.163138
1746.000000	16.129095
1745.000000	16.069354
1744.000000	16.001267
1743.000000	15.904628
1742.000000	15.796568
1741.000000	15.677416
1740.000000	15.554860
1739.000000	15.400237
1738.000000	15.286137
1737.000000	15.159188
1736.000000	15.031800
1735.000000	14.954927
1734.000000	14.889366
1733.000000	14.845989
1732.000000	14.840058
1731.000000	14.845879
1730.000000	14.877396
1729.000000	14.911659
1728.000000	14.966348
1727.000000	15.029274
1726.000000	15.074738
1725.000000	15.116579
1724.000000	15.154136
1723.000000	15.197953
1722.000000	15.246822
1721.000000	15.274825
1720.000000	15.315348
1719.000000	15.348952
1718.000000	15.385192
1717.000000	15.449874
1716.000000	15.489628
1715.000000	15.568148
1714.000000	15.635466
1713.000000	15.665226
1712.000000	15.728700
1711.000000	15.809856
1710.000000	15.839836
1709.000000	15.860371
1708.000000	15.894635
1707.000000	15.886618
1706.000000	15.886398
1705.000000	15.868169
1704.000000	15.847413
1703.000000	15.811722
1702.000000	15.772847
1701.000000	15.709592
1700.000000	15.639858
1699.000000	15.568257
1698.000000	15.502477
1697.000000	15.421871
1696.000000	15.382995
1695.000000	15.359714
1694.000000	15.355541
1693.000000	15.392220
1692.000000	15.444493
1691.000000	15.547941
1690.000000	15.657978
1689.000000	15.739353
1688.000000	15.833686
1687.000000	15.916378
1686.000000	15.972824
1685.000000	16.010382
1684.000000	16.097577
1683.000000	16.197181
1682.000000	16.408470
1681.000000	16.620637
1680.000000	16.932628
1679.000000	17.277894
1678.000000	17.663463
1677.000000	18.048922
1676.000000	18.390563
1675.000000	18.712328
1674.000000	19.032007
1673.000000	19.305671
1672.000000	19.519486
1671.000000	19.744172
1670.000000	19.903737
1669.000000	20.090536
1668.000000	20.246916
1667.000000	20.403186
1666.000000	20.494334
1665.000000	20.590205
1664.000000	20.669493
1663.000000	20.769976
1662.000000	20.848715
1661.000000	20.902306
1660.000000	20.966878
1659.000000	21.003997
1658.000000	21.069228
1657.000000	21.108104
1656.000000	21.149615
1655.000000	21.159498
1654.000000	21.161145
1653.000000	21.169601
1652.000000	21.162244
1651.000000	21.144234
1650.000000	21.124466
1649.000000	21.105797
1648.000000	21.076806
1647.000000	21.051438
1646.000000	21.017614
1645.000000	20.968416
1644.000000	20.946672
1643.000000	20.895387
1642.000000	20.851241
1641.000000	20.807753
1640.000000	20.784142
1639.000000	20.717044
1638.000000	20.676631
1637.000000	20.627323
1636.000000	20.587899
1635.000000	20.507842
1634.000000	20.479180
1633.000000	20.413728
1632.000000	20.345093
1631.000000	20.270746
1630.000000	20.229894
1629.000000	20.144237
1628.000000	20.087900
1627.000000	20.017727
1626.000000	19.965783
1625.000000	19.883530
1624.000000	19.822911
1623.000000	19.753946
1622.000000	19.692997
1621.000000	19.629193
1620.000000	19.573626
1619.000000	19.527393
1618.000000	19.453266
1617.000000	19.415599
1616.000000	19.361459
1615.000000	19.280413
1614.000000	19.224516
1613.000000	19.170486
1612.000000	19.108330
1611.000000	19.045075
1610.000000	18.989288
1609.000000	18.949534
1608.000000	18.907364
1607.000000	18.829174
1606.000000	18.781513
1605.000000	18.710461
1604.000000	18.645120
1603.000000	18.600973
1602.000000	18.521795
1601.000000	18.462933
1600.000000	18.406157
1599.000000	18.359485
1598.000000	18.273169
1597.000000	18.235501
1596.000000	18.179275
1595.000000	18.122280
1594.000000	18.059684
1593.000000	18.006752
1592.000000	17.954698
1591.000000	17.904292
1590.000000	17.875740
1589.000000	17.819513
1588.000000	17.773280
1587.000000	17.729573
1586.000000	17.689160
1585.000000	17.638424
1584.000000	17.609103
1583.000000	17.591862
1582.000000	17.543872
1581.000000	17.515209
1580.000000	17.495113
1579.000000	17.449319
1578.000000	17.410773
1577.000000	17.403305
1576.000000	17.385954
1575.000000	17.371678
1574.000000	17.356743
1573.000000	17.346530
1572.000000	17.335768
1571.000000	17.325884
1570.000000	17.329618
1569.000000	17.330277
1568.000000	17.338293
1567.000000	17.328520
1566.000000	17.338403
1565.000000	17.339282
1564.000000	17.348177
1563.000000	17.346310
1562.000000	17.342027
1561.000000	17.338513
1560.000000	17.339282
1559.000000	17.336097
1558.000000	17.340709
1557.000000	17.328300
1556.000000	17.301724
1555.000000	17.288985
1554.000000	17.275368
1553.000000	17.247145
1552.000000	17.208270
1551.000000	17.188063
1550.000000	17.154569
1549.000000	17.112948
1548.000000	17.109214
1547.000000	17.081870
1546.000000	17.054086
1545.000000	17.025863
1544.000000	16.994785
1543.000000	16.971613
1542.000000	16.943171
1541.000000	16.925490
1540.000000	16.927357
1539.000000	16.907260
1538.000000	16.870252
1537.000000	16.861247
1536.000000	16.831816
1535.000000	16.806887
1534.000000	16.794148
1533.000000	16.765376
1532.000000	16.736714
1531.000000	16.717276
1530.000000	16.683233
1529.000000	16.653802
1528.000000	16.635243
1527.000000	16.606031
1526.000000	16.569462
1525.000000	16.531246
1524.000000	16.486440
1523.000000	16.447235
1522.000000	16.415059
1521.000000	16.382773
1520.000000	16.356746
1519.000000	16.315235
1518.000000	16.268233
1517.000000	16.230346
1516.000000	16.199817
1515.000000	16.154682
1514.000000	16.103727
1513.000000	16.070342
1512.000000	16.038825
1511.000000	16.002036
1510.000000	15.954814
1509.000000	15.903530
1508.000000	15.869706
1507.000000	15.840934
1506.000000	15.792395
1505.000000	15.738255
1504.000000	15.702893
1503.000000	15.679063
1502.000000	15.633489
1501.000000	15.588903
1500.000000	15.561009
1499.000000	15.520048
1498.000000	15.475571
1497.000000	15.453937
1496.000000	15.431535
1495.000000	15.387498
1494.000000	15.354992
1493.000000	15.337531
1492.000000	15.317654
1491.000000	15.304915
1490.000000	15.288443
1489.000000	15.267797
1488.000000	15.253631
1487.000000	15.244845
1486.000000	15.239903
1485.000000	15.228702
1484.000000	15.201028
1483.000000	15.182469
1482.000000	15.179724
1481.000000	15.174123
1480.000000	15.151171
1479.000000	15.157980
1478.000000	15.167424
1477.000000	15.161604
1476.000000	15.144033
1475.000000	15.142276
1474.000000	15.140629
1473.000000	15.154685
1472.000000	15.186862
1471.000000	15.183457
1470.000000	15.173684
1469.000000	15.181371
1468.000000	15.199051
1467.000000	15.213218
1466.000000	15.227274
1465.000000	15.248140
1464.000000	15.255388
1463.000000	15.282073
1462.000000	15.283611
1461.000000	15.304366
1460.000000	15.353564
1459.000000	15.390463
1458.000000	15.440320
1457.000000	15.466676
1456.000000	15.514886
1455.000000	15.572430
1454.000000	15.623386
1453.000000	15.690374
1452.000000	15.735070
1451.000000	15.789320
1450.000000	15.856857
1449.000000	15.895842
1448.000000	15.949653
1447.000000	16.043437
1446.000000	16.117344
1445.000000	16.174010
1444.000000	16.232762
1443.000000	16.303814
1442.000000	16.397598
1441.000000	16.472384
1440.000000	16.549366
1439.000000	16.621296
1438.000000	16.710687
1437.000000	16.814135
1436.000000	16.888591
1435.000000	16.957227
1434.000000	17.063311
1433.000000	17.183561
1432.000000	17.285032
1431.000000	17.377169
1430.000000	17.486657
1429.000000	17.599000
1428.000000	17.724411
1427.000000	17.852458
1426.000000	18.003128
1425.000000	18.161814
1424.000000	18.315119
1423.000000	18.507738
1422.000000	18.690145
1421.000000	18.862888
1420.000000	19.048809
1419.000000	19.253398
1418.000000	19.487968
1417.000000	19.699476
1416.000000	19.870352
1415.000000	20.131278
1414.000000	20.382321
1413.000000	20.626005
1412.000000	20.869800
1411.000000	21.129079
1410.000000	21.423499
1409.000000	21.766019
1408.000000	22.134237
1407.000000	22.495316
1406.000000	22.850905
1405.000000	23.240976
1404.000000	23.639613
1403.000000	24.054393
1402.000000	24.405919
1401.000000	24.838380
1400.000000	25.303346
1399.000000	25.705717
1398.000000	26.039562
1397.000000	26.337606
1396.000000	26.749201
1395.000000	27.124447
1394.000000	27.479816
1393.000000	27.778959
1392.000000	28.138281
1391.000000	28.497713
1390.000000	28.868896
1389.000000	29.231842
1388.000000	29.717016
1387.000000	30.238648
1386.000000	30.743149
1385.000000	31.298715
1384.000000	31.847362
1383.000000	32.465414
1382.000000	33.042944
1381.000000	33.615861
1380.000000	34.043819
1379.000000	34.353724
1378.000000	34.617505
1377.000000	34.836920
1376.000000	35.074785
1375.000000	35.323191
1374.000000	35.602567
1373.000000	35.926418
1372.000000	36.253015
1371.000000	36.676471
1370.000000	37.077853
1369.000000	37.440690
1368.000000	37.773876
1367.000000	38.130782
1366.000000	38.393026
1365.000000	38.641762
1364.000000	38.885886
1363.000000	39.112659
1362.000000	39.338663
1361.000000	39.535566
1360.000000	39.721596
1359.000000	39.792428
1358.000000	39.937387
1357.000000	40.083554
1356.000000	40.279578
1355.000000	40.583992
1354.000000	41.006569
1353.000000	41.459017
1352.000000	41.892685
1351.000000	42.433975
1350.000000	42.926616
1349.000000	43.411899
1348.000000	43.855121
1347.000000	44.314927
1346.000000	44.719823
1345.000000	45.080244
1344.000000	45.513583
1343.000000	45.861155
1342.000000	46.233326
1341.000000	46.570246
1340.000000	46.949665
1339.000000	47.278348
1338.000000	47.623833
1337.000000	47.943072
1336.000000	48.276039
1335.000000	48.603514
1334.000000	48.911991
1333.000000	49.201140
1332.000000	49.492595
1331.000000	49.801182
1330.000000	50.081107
1329.000000	50.366741
1328.000000	50.607461
1327.000000	50.850597
1326.000000	51.096368
1325.000000	51.325227
1324.000000	51.547058
1323.000000	51.768450
1322.000000	51.977872
1321.000000	52.153909
1320.000000	52.351690
1319.000000	52.532669
1318.000000	52.714746
1317.000000	52.866734
1316.000000	53.025969
1315.000000	53.191024
1314.000000	53.353993
1313.000000	53.491924
1312.000000	53.626230
1311.000000	53.758450
1310.000000	53.869037
1309.000000	53.984345
1308.000000	54.088452
1307.000000	54.179161
1306.000000	54.266356
1305.000000	54.347401
1304.000000	54.414939
1303.000000	54.464466
1302.000000	54.522889
1301.000000	54.580324
1300.000000	54.621835
1299.000000	54.646214
1298.000000	54.670484
1297.000000	54.699475
1296.000000	54.730005
1295.000000	54.749662
1294.000000	54.754823
1293.000000	54.756251
1292.000000	54.752188
1291.000000	54.751748
1290.000000	54.724404
1289.000000	54.700354
1288.000000	54.685309
1287.000000	54.658184
1286.000000	54.617003
1285.000000	54.571209
1284.000000	54.504110
1283.000000	54.446237
1282.000000	54.385288
1281.000000	54.319068
1280.000000	54.260535
1279.000000	54.194535
1278.000000	54.142152
1277.000000	54.080984
1276.000000	54.032225
1275.000000	54.000708
1274.000000	53.961393
1273.000000	53.909779
1272.000000	53.864095
1271.000000	53.830710
1270.000000	53.796667
1269.000000	53.758780
1268.000000	53.738244
1267.000000	53.701345
1266.000000	53.640726
1265.000000	53.602839
1264.000000	53.568357
1263.000000	53.518609
1262.000000	53.455574
1261.000000	53.409780
1260.000000	53.362888
1259.000000	53.301061
1258.000000	53.249227
1257.000000	53.171806
1256.000000	53.098448
1255.000000	53.023443
1254.000000	52.931196
1253.000000	52.844770
1252.000000	52.755489
1251.000000	52.655335
1250.000000	52.547165
1249.000000	52.439874
1248.000000	52.313254
1247.000000	52.185427
1246.000000	52.075060
1245.000000	51.947013
1244.000000	51.784484
1243.000000	51.632167
1242.000000	51.481717
1241.000000	51.316991
1240.000000	51.159513
1239.000000	50.983476
1238.000000	50.814577
1237.000000	50.659295
1236.000000	50.476229
1235.000000	50.296788
1234.000000	50.111855
1233.000000	49.915831
1232.000000	49.714536
1231.000000	49.511704
1230.000000	49.298548
1229.000000	49.075399
1228.000000	48.855874
1227.000000	48.625917
1226.000000	48.385746
1225.000000	48.146235
1224.000000	47.906503
1223.000000	47.661281
1222.000000	47.406615
1221.000000	47.152058
1220.000000	46.897501
1219.000000	46.654036
1218.000000	46.418368
1217.000000	46.185885
1216.000000	45.977342
1215.000000	45.773960
1214.000000	45.568821
1213.000000	45.383230
1212.000000	45.211695
1211.000000	45.050483
1210.000000	44.879498
1209.000000	44.712795
1208.000000	44.571570
1207.000000	44.435616
1206.000000	44.323822
1205.000000	44.239372
1204.000000	44.167003
1203.000000	44.099245
1202.000000	44.031159
1201.000000	43.963511
1200.000000	43.913105
1199.000000	43.830193
1198.000000	43.730479
1197.000000	43.607264
1196.000000	43.459669
1195.000000	43.264194
1194.000000	43.019192
1193.000000	42.709287
1192.000000	42.349086
1191.000000	41.958246
1190.000000	41.562904
1189.000000	41.176676
1188.000000	40.833717
1187.000000	40.597609
1186.000000	40.472308
1185.000000	40.450015
1184.000000	40.553133
1183.000000	40.793523
1182.000000	41.149002
1181.000000	41.568395
1180.000000	42.043245
1179.000000	42.549942
1178.000000	43.037312
1177.000000	43.488661
1176.000000	43.874120
1175.000000	44.224218
1174.000000	44.556635
1173.000000	44.878400
1172.000000	45.188634
1171.000000	45.508422
1170.000000	45.840400
1169.000000	46.166228
1168.000000	46.498096
1167.000000	46.863678
1166.000000	47.232774
1165.000000	47.608130
1164.000000	47.997103
1163.000000	48.389809
1162.000000	48.802833
1161.000000	49.228594
1160.000000	49.626023
1159.000000	50.047063
1158.000000	50.434499
1157.000000	50.814357
1156.000000	51.162368
1155.000000	51.484243
1154.000000	51.758676
1153.000000	51.982704
1152.000000	52.180155
1151.000000	52.325005
1150.000000	52.464143
1149.000000	52.597681
1148.000000	52.717711
1147.000000	52.856081
1146.000000	53.026628
1145.000000	53.256805
1144.000000	53.562097
1143.000000	53.858494
1142.000000	54.234069
1141.000000	54.623262
1140.000000	55.052538
1139.000000	55.468197
1138.000000	55.907576
1137.000000	56.370456
1136.000000	56.848381
1135.000000	57.335531
1134.000000	57.861886
1133.000000	58.318397
1132.000000	58.691666
1131.000000	59.063507
1130.000000	59.397681
1129.000000	59.684195
1128.000000	59.945341
1127.000000	60.164756
1126.000000	60.324430
1125.000000	60.480590
1124.000000	60.579426
1123.000000	60.686498
1122.000000	60.752279
1121.000000	60.796755
1120.000000	60.825197
1119.000000	60.879227
1118.000000	60.894053
1117.000000	60.892625
1116.000000	60.891307
1115.000000	60.864402
1114.000000	60.846612
1113.000000	60.814765
1112.000000	60.793790
1111.000000	60.763150
1110.000000	60.736684
1109.000000	60.712195
1108.000000	60.684411
1107.000000	60.655859
1106.000000	60.641912
1105.000000	60.613250
1104.000000	60.580634
1103.000000	60.561306
1102.000000	60.524957
1101.000000	60.491023
1100.000000	60.455003
1099.000000	60.398557
1098.000000	60.368577
1097.000000	60.327176
1096.000000	60.268204
1095.000000	60.234050
1094.000000	60.159704
1093.000000	60.123904
1092.000000	60.033304
1091.000000	59.964778
1090.000000	59.903171
1089.000000	59.839477
1088.000000	59.772927
1087.000000	59.675519
1086.000000	59.617097
1085.000000	59.537918
1084.000000	59.457202
1083.000000	59.369019
1082.000000	59.292367
1081.000000	59.192982
1080.000000	59.111937
1079.000000	59.016396
1078.000000	58.929310
1077.000000	58.851230
1076.000000	58.756787
1075.000000	58.680904
1074.000000	58.580750
1073.000000	58.511895
1072.000000	58.399002
1071.000000	58.317298
1070.000000	58.217035
1069.000000	58.112489
1068.000000	57.993557
1067.000000	57.926239
1066.000000	57.847390
1065.000000	57.752727
1064.000000	57.637309
1063.000000	57.531445
1062.000000	57.427448
1061.000000	57.322463
1060.000000	57.229228
1059.000000	57.110515
1058.000000	57.012778
1057.000000	56.887257
1056.000000	56.784358
1055.000000	56.677286
1054.000000	56.568786
1053.000000	56.461934
1052.000000	56.345198
1051.000000	56.224729
1050.000000	56.116449
1049.000000	56.019700
1048.000000	55.927673
1047.000000	55.841246
1046.000000	55.729343
1045.000000	55.616560
1044.000000	55.538809
1043.000000	55.438546
1042.000000	55.338173
1041.000000	55.227697
1040.000000	55.143687
1039.000000	55.049353
1038.000000	54.943819
1037.000000	54.858052
1036.000000	54.743073
1035.000000	54.633914
1034.000000	54.537165
1033.000000	54.413840
1032.000000	54.314895
1031.000000	54.205627
1030.000000	54.088122
1029.000000	53.967653
1028.000000	53.875735
1027.000000	53.743515
1026.000000	53.622826
1025.000000	53.501698
1024.000000	53.372223
1023.000000	53.236269
1022.000000	53.122718
1021.000000	53.004554
1020.000000	52.865196
1019.000000	52.759662
1018.000000	52.627991
1017.000000	52.523335
1016.000000	52.401877
1015.000000	52.289204
1014.000000	52.181363
1013.000000	52.113277
1012.000000	52.031682
1011.000000	51.948551
1010.000000	51.872447
1009.000000	51.803482
1008.000000	51.745279
1007.000000	51.664453
1006.000000	51.592742
1005.000000	51.547717
1004.000000	51.472273
1003.000000	51.408579
1002.000000	51.347081
1001.000000	51.281081
1000.000000	51.198718
999.000000	51.128984
998.000000	51.059360
997.000000	50.997093
996.000000	50.945149
995.000000	50.874537
994.000000	50.809745
993.000000	50.734630
992.000000	50.689055
991.000000	50.625471
990.000000	50.564962
989.000000	50.519278
988.000000	50.465797
987.000000	50.417477
986.000000	50.333796
985.000000	50.270981
984.000000	50.228042
983.000000	50.190704
982.000000	50.138541
981.000000	50.103290
980.000000	50.037839
979.000000	49.979416
978.000000	49.944933
977.000000	49.907925
976.000000	49.854004
975.000000	49.797448
974.000000	49.747481
973.000000	49.701797
972.000000	49.649415
971.000000	49.600985
970.000000	49.544649
969.000000	49.508080
968.000000	49.457783
967.000000	49.406499
966.000000	49.363011
965.000000	49.302611
964.000000	49.254621
963.000000	49.235074
962.000000	49.195100
961.000000	49.152930
960.000000	49.118887
959.000000	49.088467
958.000000	49.058158
957.000000	49.003359
956.000000	48.967778
955.000000	48.930550
954.000000	48.880583
953.000000	48.843136
952.000000	48.793059
951.000000	48.746167
950.000000	48.705425
949.000000	48.656446
948.000000	48.591324
947.000000	48.542346
946.000000	48.483703
945.000000	48.418362
944.000000	48.362135
943.000000	48.306129
942.000000	48.248694
941.000000	48.163476
940.000000	48.077269
939.000000	48.017858
938.000000	47.949222
937.000000	47.864553
936.000000	47.783947
935.000000	47.702902
934.000000	47.648103
933.000000	47.589021
932.000000	47.507647
931.000000	47.427919
930.000000	47.360711
929.000000	47.291856
928.000000	47.207845
927.000000	47.122737
926.000000	47.068158
925.000000	46.985685
924.000000	46.893328
923.000000	46.814480
922.000000	46.744416
921.000000	46.674682
920.000000	46.592539
919.000000	46.535434
918.000000	46.465919
917.000000	46.390475
916.000000	46.314371
915.000000	46.224760
914.000000	46.136577
913.000000	46.051798
912.000000	45.968886
911.000000	45.917931
910.000000	45.856103
909.000000	45.787358
908.000000	45.719820
907.000000	45.666669
906.000000	45.625267
905.000000	45.597374
904.000000	45.578595
903.000000	45.562122
902.000000	45.536205
901.000000	45.535986
900.000000	45.535876
899.000000	45.524565
898.000000	45.515999
897.000000	45.517756
896.000000	45.526761
895.000000	45.511716
894.000000	45.482285
893.000000	45.482615
892.000000	45.471853
891.000000	45.459333
890.000000	45.462189
889.000000	45.445496
888.000000	45.416834
887.000000	45.398824
886.000000	45.374664
885.000000	45.359180
884.000000	45.325027
883.000000	45.306687
882.000000	45.272205
881.000000	45.248264
880.000000	45.204228
879.000000	45.182264
878.000000	45.122633
877.000000	45.037525
876.000000	44.958347
875.000000	44.867088
874.000000	44.720812
873.000000	44.608359
872.000000	44.558831
871.000000	44.590898
870.000000	44.616485
869.000000	44.657227
868.000000	44.694675
867.000000	44.723447
866.000000	44.753976
865.000000	44.791424
864.000000	44.844027
863.000000	44.870163
862.000000	44.888393
861.000000	44.960213
860.000000	44.996892
859.000000	45.048726
858.000000	45.090567
857.000000	44.552400
856.000000	45.098000
855.000000	45.621300
854.000000	45.626100
853.000000	45.234100
852.000000	45.212400
851.000000	45.722000
850.000000	45.716700
849.000000	45.930100
848.000000	46.160200
847.000000	46.177900
846.000000	46.346000
845.000000	46.220700
844.000000	46.515300
843.000000	46.605500
842.000000	46.571400
841.000000	46.639400
840.000000	46.806200
839.000000	46.845700
838.000000	46.963600
837.000000	46.827900
836.000000	47.050300
835.000000	47.060800
834.000000	47.073100
833.000000	47.094200
832.000000	47.014100
831.000000	46.870500
830.000000	47.350200
829.000000	47.262200
828.000000	47.248400
827.000000	47.447200
826.000000	47.467500
825.000000	47.364700
824.000000	47.387900
823.000000	47.431300
822.000000	47.513100
821.000000	47.363600
820.000000	47.389500
819.000000	47.556000
818.000000	47.363700
817.000000	47.326500
816.000000	47.453200
815.000000	47.491900
814.000000	47.409300
813.000000	47.426400
812.000000	47.551300
811.000000	47.367300
810.000000	47.238200
809.000000	47.575500
808.000000	47.509900
807.000000	47.358200
806.000000	47.237500
805.000000	47.368800
804.000000	47.192800
803.000000	47.240500
802.000000	47.237000
801.000000	47.136500
800.000000	47.229700
799.000000	47.063300
798.000000	47.054100
797.000000	46.989900
796.000000	46.882400
795.000000	46.945500
794.000000	46.930800
793.000000	46.878900
792.000000	46.819500
791.000000	46.750900
790.000000	46.831000
789.000000	46.598300
788.000000	46.613000
787.000000	46.494200
786.000000	46.421500
785.000000	46.502900
784.000000	46.422600
783.000000	46.400300
782.000000	46.285300
781.000000	46.175300
780.000000	46.189000
779.000000	46.047100
778.000000	46.014300
777.000000	45.761200
776.000000	45.855400
775.000000	45.692100
774.000000	45.658800
773.000000	45.537500
772.000000	45.457100
771.000000	45.452500
770.000000	45.314700
769.000000	45.326300
768.000000	45.247800
767.000000	45.190800
766.000000	45.032800
765.000000	45.051500
764.000000	44.925100
763.000000	44.780300
762.000000	44.654900
761.000000	44.570600
760.000000	44.509900
759.000000	44.326200
758.000000	44.183400
757.000000	44.199600
756.000000	44.065900
755.000000	43.952000
754.000000	43.866100
753.000000	43.843200
752.000000	43.764600
751.000000	43.637300
750.000000	43.513000
749.000000	43.386000
748.000000	43.238600
747.000000	43.240700
746.000000	43.083500
745.000000	42.956900
744.000000	42.861400
743.000000	42.688200
742.000000	42.584000
741.000000	42.359500
740.000000	42.313300
739.000000	42.166900
738.000000	42.055000
737.000000	41.919900
736.000000	41.748600
735.000000	41.580600
734.000000	41.484200
733.000000	41.330500
732.000000	41.179500
731.000000	41.018300
730.000000	40.979500
729.000000	40.786100
728.000000	40.574900
727.000000	40.392000
726.000000	40.323900
725.000000	40.085800
724.000000	39.920800
723.000000	39.760600
722.000000	39.601000
721.000000	39.344800
720.000000	39.196900
719.000000	39.027600
718.000000	38.818100
717.000000	38.593100
716.000000	38.482300
715.000000	38.271500
714.000000	38.103500
713.000000	37.845600
712.000000	37.655100
711.000000	37.421900
710.000000	37.209800
709.000000	36.989300
708.000000	36.786500
707.000000	36.553000
706.000000	36.298900
705.000000	36.095600
704.000000	35.894500
703.000000	35.614300
702.000000	35.366900
701.000000	35.166100
700.000000	34.880700
699.000000	34.596700
698.000000	34.351400
697.000000	34.109200
696.000000	33.833100
695.000000	33.571500
694.000000	33.333100
693.000000	33.047200
692.000000	32.752400
691.000000	32.471400
690.000000	32.200600
689.000000	31.912700
688.000000	31.597800
687.000000	31.295000
686.000000	31.026800
685.000000	30.749800
684.000000	30.447000
683.000000	30.201000
682.000000	29.930000
681.000000	29.628300
680.000000	29.352500
679.000000	29.083600
678.000000	28.800300
677.000000	28.535200
676.000000	28.264400
675.000000	27.979700
674.000000	27.710700
673.000000	27.435100
672.000000	27.169900
671.000000	26.906800
670.000000	26.658800
669.000000	26.408600
668.000000	26.181500
667.000000	25.980700
666.000000	25.765800
665.000000	25.561700
664.000000	25.350000
663.000000	25.134800
662.000000	24.946100
661.000000	24.771500
660.000000	24.574200
659.000000	24.391500
658.000000	24.214600
657.000000	24.035000
656.000000	23.867200
655.000000	23.708900
654.000000	23.556400
653.000000	23.411800
652.000000	23.288000
651.000000	23.167200
650.000000	23.047800
649.000000	22.936000
648.000000	22.822800
647.000000	22.718700
646.000000	22.643600
645.000000	22.559900
644.000000	22.464700
643.000000	22.381600
642.000000	22.319600
641.000000	22.257400
640.000000	22.239500
639.000000	22.213400
638.000000	22.179500
637.000000	22.185200
636.000000	22.199800
635.000000	22.201700
634.000000	22.211300
633.000000	22.248100
632.000000	22.285600
631.000000	22.319500
630.000000	22.373600
629.000000	22.427800
628.000000	22.511100
627.000000	22.599300
626.000000	22.693000
625.000000	22.800200
624.000000	22.905900
623.000000	23.025100
622.000000	23.138100
621.000000	23.260300
620.000000	23.404600
619.000000	23.528700
618.000000	23.649300
617.000000	23.792200
616.000000	23.924100
615.000000	24.053400
614.000000	24.205300
613.000000	24.359700
612.000000	24.504600
611.000000	24.665400
610.000000	24.805600
609.000000	24.933700
608.000000	25.081200
607.000000	25.209400
606.000000	25.345700
605.000000	25.490300
604.000000	25.615800
603.000000	25.740900
602.000000	25.888700
601.000000	26.015100
600.000000	26.116300
599.000000	26.233400
598.000000	26.346200
597.000000	26.466500
596.000000	26.569100
595.000000	26.682700
594.000000	26.762100
593.000000	26.852100
592.000000	26.953900
591.000000	27.024300
590.000000	27.102700
589.000000	27.191900
588.000000	27.279200
587.000000	27.356900
586.000000	27.413600
585.000000	27.485300
584.000000	27.545100
583.000000	27.585500
582.000000	27.632100
581.000000	27.689000
580.000000	27.706700
579.000000	27.733600
578.000000	27.746500
577.000000	27.783700
576.000000	27.801400
575.000000	27.803300
574.000000	27.805000
573.000000	27.819200
572.000000	27.820900
571.000000	27.797000
570.000000	27.788800
569.000000	27.755900
568.000000	27.712600
567.000000	27.684900
566.000000	27.647500
565.000000	27.632400
564.000000	27.584100
563.000000	27.520600
562.000000	27.454900
561.000000	27.394200
560.000000	27.339700
559.000000	27.276500
558.000000	27.201600
557.000000	27.111500
556.000000	26.993300
555.000000	26.880800
554.000000	26.772000
553.000000	26.638300
552.000000	26.510300
551.000000	26.374000
550.000000	26.220300
549.000000	26.069600
548.000000	25.902800
547.000000	25.725500
546.000000	25.550800
545.000000	25.345700
544.000000	25.137200
543.000000	24.906300
542.000000	24.699600
541.000000	24.461400
540.000000	24.225800
539.000000	23.980600
538.000000	23.728700
537.000000	23.484200
536.000000	23.219800
535.000000	22.946100
534.000000	22.680200
533.000000	22.394800
532.000000	22.115100
531.000000	21.809700
530.000000	21.512700
529.000000	21.221200
528.000000	20.917300
527.000000	20.629600
526.000000	20.319000
525.000000	20.001900
524.000000	19.697200
523.000000	19.366000
522.000000	19.054800
521.000000	18.732700
520.000000	18.451500
519.000000	18.111600
518.000000	17.841600
517.000000	17.530000
516.000000	17.240800
515.000000	16.941400
514.000000	16.657900
513.000000	16.353700
512.000000	16.093200
511.000000	15.810600
510.000000	15.545800
509.000000	15.315500
508.000000	15.035500
507.000000	14.792000
506.000000	14.564100
505.000000	14.349800
504.000000	14.095600
503.000000	13.879600
502.000000	13.671800
501.000000	13.436200
500.000000	13.257400
499.000000	13.054600
498.000000	12.863300
497.000000	12.683300
496.000000	12.480900
495.000000	12.319600
494.000000	12.169900
493.000000	11.987700
492.000000	11.842100
491.000000	11.725100
490.000000	11.583800
489.000000	11.443800
488.000000	11.308000
487.000000	11.185600
486.000000	11.089700
485.000000	10.971100
484.000000	10.862300
483.000000	10.747400
482.000000	10.629100
481.000000	10.508800
480.000000	10.368300
479.000000	10.243900
478.000000	10.130700
477.000000	10.000000
476.000000	9.912600
475.000000	9.795700
474.000000	9.681000
473.000000	9.597900
472.000000	9.488800
471.000000	9.395900
470.000000	9.294700
469.000000	9.196300
468.000000	9.121200
467.000000	9.039200
466.000000	8.958400
465.000000	8.863500
464.000000	8.810900
463.000000	8.723000
462.000000	8.631200
461.000000	8.578500
460.000000	8.519100
459.000000	8.430400
458.000000	8.358100
457.000000	8.289500
456.000000	8.196500
455.000000	8.145100
454.000000	8.079900
453.000000	8.018300
452.000000	7.965900
451.000000	7.868300
450.000000	7.824200
449.000000	7.739300
448.000000	7.685100
447.000000	7.608900
446.000000	7.541700
445.000000	7.479000
444.000000	7.399200
443.000000	7.351300
442.000000	7.263800
441.000000	7.196200
440.000000	7.135800
439.000000	7.075200
438.000000	6.994900
437.000000	6.924900
436.000000	6.858000
435.000000	6.799800
434.000000	6.703900
433.000000	6.650000
432.000000	6.604300
431.000000	6.533500
430.000000	6.489600
429.000000	6.433000
428.000000	6.374900
427.000000	6.312100
426.000000	6.264200
425.000000	6.219800
424.000000	6.159600
423.000000	6.114000
422.000000	6.049700
421.000000	5.992500
420.000000	5.942000
419.000000	5.891800
418.000000	5.852300
417.000000	5.812900
416.000000	5.760900
415.000000	5.710600
414.000000	5.665200
413.000000	5.628900
412.000000	5.583900
411.000000	5.532400
410.000000	5.491800
409.000000	5.438000
408.000000	5.422700
407.000000	5.372200
406.000000	5.337600
405.000000	5.297300
404.000000	5.247400
403.000000	5.218000
402.000000	5.184100
401.000000	5.157700
400.000000	5.142800
399.000000	5.082900
398.000000	5.038500
397.000000	5.007100
396.000000	4.988900
395.000000	4.956700
394.000000	4.924400
393.000000	4.905200
392.000000	4.877000
391.000000	4.849700
390.000000	4.839000
389.000000	4.818100
388.000000	4.774200
387.000000	4.738300
386.000000	4.720100
385.000000	4.729200
384.000000	4.693600
383.000000	4.670000
382.000000	4.660400
381.000000	4.635300
380.000000	4.634200
379.000000	4.625000
378.000000	4.605800
377.000000	4.607000
376.000000	4.567100
375.000000	4.409800
374.000000	4.217200
373.000000	4.194700
372.000000	4.205000
371.000000	4.292400
370.000000	4.270500
369.000000	4.341000
368.000000	4.400000
367.000000	4.411800
366.000000	4.427600
365.000000	4.444900
364.000000	4.448100
363.000000	4.406800
362.000000	4.482300
361.000000	4.490100
360.000000	4.388500
359.000000	4.388500
358.000000	4.349600
357.000000	4.323200
356.000000	4.428700
355.000000	4.489000
354.000000	4.501400
353.000000	4.493200
352.000000	4.523700
351.000000	4.370300
350.000000	4.417700
349.000000	4.549500
348.000000	4.652600
347.000000	4.621500
346.000000	4.465700
345.000000	4.458400
344.000000	4.542100
343.000000	4.509000
342.000000	4.417400
341.000000	4.513100
340.000000	4.509700
339.000000	4.517100
338.000000	4.721400
337.000000	4.935600
336.000000	4.772700
335.000000	4.400000
334.000000	4.687600
333.000000	4.792500
332.000000	4.601300
331.000000	4.482100
330.000000	4.574500
329.000000	4.880900
328.000000	4.852600
327.000000	5.002800
326.000000	5.282600
325.000000	5.098500
324.000000	4.706100
323.000000	5.006200
322.000000	5.495400
321.000000	5.148700
320.000000	4.896600
319.000000	4.938300
318.000000	5.115500
317.000000	5.819200
316.000000	5.259000
315.000000	4.462300
314.000000	4.464600
313.000000	4.462700
312.000000	4.449100
311.000000	4.479700
310.000000	4.486500
309.000000	4.471000
308.000000	4.472600
307.000000	4.481100
306.000000	4.456200
305.000000	4.470800
304.000000	4.466400
303.000000	4.465500
302.000000	4.504400
301.000000	4.511900
300.000000	4.470800
299.000000	4.466800
298.000000	4.476700
297.000000	4.493800
296.000000	4.539100
295.000000	4.541000
294.000000	4.502600
293.000000	4.499000
292.000000	4.508600
291.000000	4.525800
290.000000	4.526600
289.000000	4.511900
288.000000	4.503600
287.000000	4.469400
286.000000	4.486400
285.000000	4.502300
284.000000	4.516700
283.000000	4.522900
282.000000	4.536100
281.000000	4.531500
280.000000	4.513100
279.000000	4.539800
278.000000	4.550100
277.000000	4.547100
276.000000	4.596500
275.000000	4.634100
274.000000	4.596800
273.000000	4.598900
272.000000	4.608200
271.000000	4.593400
270.000000	4.612100
269.000000	4.697600
268.000000	4.710400
267.000000	4.706200
266.000000	4.751800
265.000000	4.707700
264.000000	4.734200
263.000000	4.793500
262.000000	4.804400
261.000000	4.815500
260.000000	4.847900
259.000000	4.860000
258.000000	4.887300
257.000000	4.881300
256.000000	4.889700
255.000000	4.900200
254.000000	4.909400
253.000000	4.883900
252.000000	4.926600
251.000000	4.921000
250.000000	4.967400
