PE UV       SUBTECH     SPECTRUM    ASCII       PEDS        4.00        
   -1
INBUCR0325-4.Sample.ASC
24/02/09
10:21:22.00
24/02/09
10:21:22.00
Vinicio Soto Monge
Estacion Cuatro Esquinas. P. N. Tortuguero. Prov. Limón, COSTA RICA, 1 m. Jul 1993. R. Delgado. L. N. 280000_590500. #2247. INBIOCRI001930356
250,000000
1
Lambda 1050
1050L1511233
PerkinElmer UV WinLab 6.3.2.0749 / 2.02.05 Lambda 900 UV/VIS/NIR, Aug  7 2015 09:38:08

0
0
3350/servo 860,8/2
0
0
UV/VIS
1
1
1
DoubleDePol,CommonBeamDepol,RBeamAtt,SBeamAtt,60mm sphere, WB InGaAs Detector
0
0
0
0
Program
Program
3350/servo 860,8/2
3350/0,2 860,8/0,2
3350/0,2 860,8/0,2
0
15.00
 
 
 
0
 
860,8
319,2
860,8
Front
100
on
S:100 R:100
0
0
0
0
 
0
 
 
 
0
 
 
0
0
0
0
0
 
 
 
 
0
0


0
0
#HDR
-1
-1
#GR
nm
%R
1.0
0.0
2500,000000
-1,000000
2251
8
17,282600
1,461400
#DATA

250.000000	nan
251.000000	nan
252.000000	nan
253.000000	nan
254.000000	nan
255.000000	nan
256.000000	nan
257.000000	nan
258.000000	nan
259.000000	5.968705
260.000000	5.965276
261.000000	5.961369
262.000000	5.957566
263.000000	5.951798
264.000000	5.945850
265.000000	5.940421
266.000000	5.933842
267.000000	5.928072
268.000000	5.922400
269.000000	5.916603
270.000000	5.909812
271.000000	5.903644
272.000000	5.898551
273.000000	5.893708
274.000000	5.889947
275.000000	5.885468
276.000000	5.882198
277.000000	5.877346
278.000000	5.874458
279.000000	5.871720
280.000000	5.867879
281.000000	5.867165
282.000000	5.863828
283.000000	5.863394
284.000000	5.860822
285.000000	5.857802
286.000000	5.855682
287.000000	5.854911
288.000000	5.852434
289.000000	5.850286
290.000000	5.849755
291.000000	5.848360
292.000000	5.846770
293.000000	5.843806
294.000000	5.840968
295.000000	5.838815
296.000000	5.838557
297.000000	5.837168
298.000000	5.836686
299.000000	5.834671
300.000000	5.832418
301.000000	5.830359
302.000000	5.826767
303.000000	5.823245
304.000000	5.822172
305.000000	5.821814
306.000000	5.819844
307.000000	5.819393
308.000000	5.817124
309.000000	5.817678
310.000000	5.815037
311.000000	5.813710
312.000000	5.815044
313.000000	5.816059
314.000000	5.815831
315.000000	5.816982
316.000000	5.817361
317.000000	5.871925
318.000000	5.918320
319.000000	5.972363
320.000000	6.024764
321.000000	6.070541
322.000000	6.117429
323.000000	6.163742
324.000000	6.208171
325.000000	6.258077
326.000000	6.304916
327.000000	6.289972
328.000000	6.290462
329.000000	6.280090
330.000000	6.273619
331.000000	6.274133
332.000000	6.272854
333.000000	6.271766
334.000000	6.271275
335.000000	6.258525
336.000000	6.256275
337.000000	6.256591
338.000000	6.255896
339.000000	6.252847
340.000000	6.253416
341.000000	6.247211
342.000000	6.242224
343.000000	6.237856
344.000000	6.238315
345.000000	6.240972
346.000000	6.235911
347.000000	6.233250
348.000000	6.226176
349.000000	6.224147
350.000000	6.222711
351.000000	6.222214
352.000000	6.219987
353.000000	6.219056
354.000000	6.214435
355.000000	6.211734
356.000000	6.209374
357.000000	6.209036
358.000000	6.207353
359.000000	6.206210
360.000000	6.201654
361.000000	6.197987
362.000000	6.195686
363.000000	6.192149
364.000000	6.188833
365.000000	6.225294
366.000000	6.259306
367.000000	6.294739
368.000000	6.333275
369.000000	6.367748
370.000000	6.403177
371.000000	6.442182
372.000000	6.477433
373.000000	6.512899
374.000000	6.546611
375.000000	6.541215
376.000000	6.540317
377.000000	6.528006
378.000000	6.513768
379.000000	6.502006
380.000000	6.489936
381.000000	6.476038
382.000000	6.466190
383.000000	6.456139
384.000000	6.447820
385.000000	6.439102
386.000000	6.428753
387.000000	6.427541
388.000000	6.426595
389.000000	6.425513
390.000000	6.424370
391.000000	6.423390
392.000000	6.421775
393.000000	6.420691
394.000000	6.419526
395.000000	6.418213
396.000000	6.417075
397.000000	6.416642
398.000000	6.415841
399.000000	6.414864
400.000000	6.414149
401.000000	6.413065
402.000000	6.412606
403.000000	6.411782
404.000000	6.410932
405.000000	6.410160
406.000000	6.409506
407.000000	6.408232
408.000000	6.407005
409.000000	6.406312
410.000000	6.405570
411.000000	6.404577
412.000000	6.403889
413.000000	6.403266
414.000000	6.402377
415.000000	6.401698
416.000000	6.400599
417.000000	6.399638
418.000000	6.399077
419.000000	6.398220
420.000000	6.397154
421.000000	6.396444
422.000000	6.395260
423.000000	6.394098
424.000000	6.393273
425.000000	6.392585
426.000000	6.392082
427.000000	6.391328
428.000000	6.390019
429.000000	6.388802
430.000000	6.426795
431.000000	6.464750
432.000000	6.503129
433.000000	6.541591
434.000000	6.579959
435.000000	6.618159
436.000000	6.656265
437.000000	6.694484
438.000000	6.733221
439.000000	6.771861
440.000000	6.771326
441.000000	6.770996
442.000000	6.770310
443.000000	6.769670
444.000000	6.769103
445.000000	6.768309
446.000000	6.767559
447.000000	6.767027
448.000000	6.766460
449.000000	6.766124
450.000000	6.765722
451.000000	6.764946
452.000000	6.764038
453.000000	6.763223
454.000000	6.762727
455.000000	6.762222
456.000000	6.761367
457.000000	6.760440
458.000000	6.759597
459.000000	6.758796
460.000000	6.758065
461.000000	6.757620
462.000000	6.757418
463.000000	6.757282
464.000000	6.756974
465.000000	6.756998
466.000000	6.757677
467.000000	6.758682
468.000000	6.759280
469.000000	6.759736
470.000000	6.760733
471.000000	6.761700
472.000000	6.762956
473.000000	6.764339
474.000000	6.765784
475.000000	6.767318
476.000000	6.768803
477.000000	6.770293
478.000000	6.772263
479.000000	6.774448
480.000000	6.776514
481.000000	6.778935
482.000000	6.781455
483.000000	6.784214
484.000000	6.787478
485.000000	6.791309
486.000000	6.795570
487.000000	6.800459
488.000000	6.806024
489.000000	6.812422
490.000000	6.819560
491.000000	6.827550
492.000000	6.836576
493.000000	6.846351
494.000000	6.856942
495.000000	6.868003
496.000000	6.879579
497.000000	6.891795
498.000000	6.904614
499.000000	6.918265
500.000000	6.932721
501.000000	6.948036
502.000000	6.964404
503.000000	6.981969
504.000000	7.000336
505.000000	7.020293
506.000000	7.042121
507.000000	7.065356
508.000000	7.090058
509.000000	7.115839
510.000000	7.143053
511.000000	7.171524
512.000000	7.200726
513.000000	7.231203
514.000000	7.263039
515.000000	7.296058
516.000000	7.329973
517.000000	7.403909
518.000000	7.479025
519.000000	7.555556
520.000000	7.633223
521.000000	7.712174
522.000000	7.792572
523.000000	7.874278
524.000000	7.957408
525.000000	8.041567
526.000000	8.127024
527.000000	8.174883
528.000000	8.224123
529.000000	8.274781
530.000000	8.327257
531.000000	8.381413
532.000000	8.476692
533.000000	8.573569
534.000000	8.672145
535.000000	8.772378
536.000000	8.874227
537.000000	8.977358
538.000000	9.081616
539.000000	9.186867
540.000000	9.332277
541.000000	9.478865
542.000000	9.586841
543.000000	9.695340
544.000000	9.804280
545.000000	9.914009
546.000000	10.063544
547.000000	10.213981
548.000000	10.365658
549.000000	10.518339
550.000000	10.632667
551.000000	10.787318
552.000000	10.943537
553.000000	11.101030
554.000000	11.259758
555.000000	11.419740
556.000000	11.581078
557.000000	11.743052
558.000000	11.906152
559.000000	12.069128
560.000000	12.222159
561.000000	12.373638
562.000000	12.524427
563.000000	12.674865
564.000000	12.825279
565.000000	12.975444
566.000000	13.086099
567.000000	13.235876
568.000000	13.384817
569.000000	13.535036
570.000000	13.695934
571.000000	13.819512
572.000000	13.944101
573.000000	14.070041
574.000000	14.196998
575.000000	14.324831
576.000000	14.453935
577.000000	14.545223
578.000000	14.637824
579.000000	14.731575
580.000000	14.826591
581.000000	14.922559
582.000000	15.019556
583.000000	15.116914
584.000000	15.214545
585.000000	15.312526
586.000000	15.409552
587.000000	15.505881
588.000000	15.601986
589.000000	15.696725
590.000000	15.789017
591.000000	15.879545
592.000000	15.967408
593.000000	16.051726
594.000000	16.132286
595.000000	16.208767
596.000000	16.242186
597.000000	16.271253
598.000000	16.295665
599.000000	16.314328
600.000000	16.328695
601.000000	16.337008
602.000000	16.339355
603.000000	16.336868
604.000000	16.329181
605.000000	16.316604
606.000000	16.338840
607.000000	16.355182
608.000000	16.327601
609.000000	16.296698
610.000000	16.260989
611.000000	16.222679
612.000000	16.181105
613.000000	16.136838
614.000000	16.090240
615.000000	16.039872
616.000000	15.986570
617.000000	15.931049
618.000000	15.912335
619.000000	15.890994
620.000000	15.867805
621.000000	15.842315
622.000000	15.815151
623.000000	15.785867
624.000000	15.753912
625.000000	15.722275
626.000000	15.688453
627.000000	15.654560
628.000000	15.618528
629.000000	15.581104
630.000000	15.542628
631.000000	15.501951
632.000000	15.459300
633.000000	15.415449
634.000000	15.370555
635.000000	15.323375
636.000000	15.275488
637.000000	15.225494
638.000000	15.175020
639.000000	15.123971
640.000000	15.070711
641.000000	15.016524
642.000000	14.961703
643.000000	14.904772
644.000000	14.846803
645.000000	14.786741
646.000000	14.725652
647.000000	14.664278
648.000000	14.600843
649.000000	14.534955
650.000000	14.468844
651.000000	14.402005
652.000000	14.333710
653.000000	14.265433
654.000000	14.195299
655.000000	14.125389
656.000000	14.015694
657.000000	13.904643
658.000000	13.793488
659.000000	13.682721
660.000000	13.571362
661.000000	13.459452
662.000000	13.347516
663.000000	13.234714
664.000000	13.123307
665.000000	13.011388
666.000000	12.938154
667.000000	12.865628
668.000000	12.753784
669.000000	12.641444
670.000000	12.529783
671.000000	12.418508
672.000000	12.307589
673.000000	12.197693
674.000000	12.087876
675.000000	11.979198
676.000000	11.871114
677.000000	11.763015
678.000000	11.695055
679.000000	11.589001
680.000000	11.483599
681.000000	11.378761
682.000000	11.275383
683.000000	11.172191
684.000000	11.069942
685.000000	10.968512
686.000000	10.868222
687.000000	10.769614
688.000000	10.672173
689.000000	10.615502
690.000000	10.559806
691.000000	10.505095
692.000000	10.451796
693.000000	10.400358
694.000000	10.311130
695.000000	10.223196
696.000000	10.137754
697.000000	10.053121
698.000000	9.969657
699.000000	9.887362
700.000000	9.806525
701.000000	9.726934
702.000000	9.648388
703.000000	9.571470
704.000000	9.534485
705.000000	9.498363
706.000000	9.462223
707.000000	9.427593
708.000000	9.393783
709.000000	9.360934
710.000000	9.329106
711.000000	9.298922
712.000000	9.269599
713.000000	9.240346
714.000000	9.212233
715.000000	9.185564
716.000000	9.160095
717.000000	9.134478
718.000000	9.109519
719.000000	9.085566
720.000000	9.063127
721.000000	9.041265
722.000000	9.020327
723.000000	9.000038
724.000000	8.980020
725.000000	8.960673
726.000000	8.942103
727.000000	8.924783
728.000000	8.908647
729.000000	8.893085
730.000000	8.877346
731.000000	8.862252
732.000000	8.847347
733.000000	8.832996
734.000000	8.820004
735.000000	8.808095
736.000000	8.796818
737.000000	8.786456
738.000000	8.776248
739.000000	8.766143
740.000000	8.756991
741.000000	8.748484
742.000000	8.740149
743.000000	8.733235
744.000000	8.727368
745.000000	8.721166
746.000000	8.715556
747.000000	8.710729
748.000000	8.706810
749.000000	8.703100
750.000000	8.698757
751.000000	8.695314
752.000000	8.693509
753.000000	8.692215
754.000000	8.691397
755.000000	8.691465
756.000000	8.691795
757.000000	8.692253
758.000000	8.693313
759.000000	8.695501
760.000000	8.699374
761.000000	8.703680
762.000000	8.708321
763.000000	8.712839
764.000000	8.717395
765.000000	8.723521
766.000000	8.730173
767.000000	8.736592
768.000000	8.743916
769.000000	8.751882
770.000000	8.759819
771.000000	8.768251
772.000000	8.776888
773.000000	8.786097
774.000000	8.796383
775.000000	8.805694
776.000000	8.814904
777.000000	8.826372
778.000000	8.877579
779.000000	8.929190
780.000000	8.981682
781.000000	9.033538
782.000000	9.086607
783.000000	9.140363
784.000000	9.194076
785.000000	9.248298
786.000000	9.303930
787.000000	9.359503
788.000000	9.376622
789.000000	9.394989
790.000000	9.412801
791.000000	9.432118
792.000000	9.450985
793.000000	9.470925
794.000000	9.491332
795.000000	9.511594
796.000000	9.532283
797.000000	9.552703
798.000000	9.573726
799.000000	9.593728
800.000000	9.614256
801.000000	9.635725
802.000000	9.658270
803.000000	9.681183
804.000000	9.703611
805.000000	9.727011
806.000000	9.749865
807.000000	9.774593
808.000000	9.798525
809.000000	9.824491
810.000000	9.851872
811.000000	9.878837
812.000000	9.905423
813.000000	9.932065
814.000000	9.958676
815.000000	9.987185
816.000000	10.016260
817.000000	10.044033
818.000000	10.072892
819.000000	10.100497
820.000000	10.128798
821.000000	10.155818
822.000000	10.223779
823.000000	10.291203
824.000000	10.360691
825.000000	10.427835
826.000000	10.496443
827.000000	10.565275
828.000000	10.632909
829.000000	10.701089
830.000000	10.770117
831.000000	10.841122
832.000000	10.872668
833.000000	10.904229
834.000000	10.933976
835.000000	10.964526
836.000000	10.994915
837.000000	11.026316
838.000000	11.059154
839.000000	11.089209
840.000000	11.120970
841.000000	11.151795
842.000000	11.181452
843.000000	11.209652
844.000000	11.235553
845.000000	11.263457
846.000000	11.296447
847.000000	11.325274
848.000000	11.353412
849.000000	11.390207
850.000000	11.423721
851.000000	11.452020
852.000000	11.483601
853.000000	11.517016
854.000000	11.550740
855.000000	11.575808
856.000000	11.597090
857.000000	11.668120
858.000000	12.200869
859.000000	12.280274
860.000000	12.358600
861.000000	12.466475
862.000000	12.544983
863.000000	12.623145
864.000000	12.677937
865.000000	12.738807
866.000000	12.771265
867.000000	12.807037
868.000000	12.355518
869.000000	12.325943
870.000000	12.347015
871.000000	12.318532
872.000000	12.317038
873.000000	12.316575
874.000000	12.316703
875.000000	12.318952
876.000000	12.347263
877.000000	12.302113
878.000000	12.284113
879.000000	12.291982
880.000000	12.250125
881.000000	12.236648
882.000000	12.222555
883.000000	12.208885
884.000000	12.197100
885.000000	12.209915
886.000000	12.198975
887.000000	12.237858
888.000000	12.250840
889.000000	12.265520
890.000000	12.256135
891.000000	12.271063
892.000000	12.287140
893.000000	12.302878
894.000000	12.318963
895.000000	12.309480
896.000000	12.326078
897.000000	12.342437
898.000000	12.384638
899.000000	12.425923
900.000000	12.467378
901.000000	12.508942
902.000000	12.525218
903.000000	12.543110
904.000000	12.584490
905.000000	12.627627
906.000000	12.668978
907.000000	12.686470
908.000000	12.705127
909.000000	12.722265
910.000000	12.765185
911.000000	12.782737
912.000000	12.825795
913.000000	12.867373
914.000000	12.911005
915.000000	12.953900
916.000000	12.997488
917.000000	13.040637
918.000000	13.081768
919.000000	13.124585
920.000000	13.143203
921.000000	13.159963
922.000000	13.203030
923.000000	13.221093
924.000000	13.263510
925.000000	13.306335
926.000000	13.350108
927.000000	13.391827
928.000000	13.434707
929.000000	13.478045
930.000000	13.544605
931.000000	13.612045
932.000000	13.653317
933.000000	13.695118
934.000000	13.712292
935.000000	13.754338
936.000000	13.771167
937.000000	13.789055
938.000000	13.806320
939.000000	13.847035
940.000000	13.888372
941.000000	13.930305
942.000000	13.971472
943.000000	14.037350
944.000000	14.077955
945.000000	14.118902
946.000000	14.184880
947.000000	14.250970
948.000000	14.292260
949.000000	14.334973
950.000000	14.377783
951.000000	14.420298
952.000000	14.463237
953.000000	14.506425
954.000000	14.574000
955.000000	14.615743
956.000000	14.656950
957.000000	14.698410
958.000000	14.766163
959.000000	14.808810
960.000000	14.851085
961.000000	14.893390
962.000000	14.935470
963.000000	14.976990
964.000000	15.020188
965.000000	15.064472
966.000000	15.107878
967.000000	15.150720
968.000000	15.192240
969.000000	15.234203
970.000000	15.276310
971.000000	15.318598
972.000000	15.361465
973.000000	15.405105
974.000000	15.448285
975.000000	15.490847
976.000000	15.533837
977.000000	15.577115
978.000000	15.620925
979.000000	15.664143
980.000000	15.707465
981.000000	15.751272
982.000000	15.795652
983.000000	15.840158
984.000000	15.882878
985.000000	15.924663
986.000000	15.991990
987.000000	16.060512
988.000000	16.103037
989.000000	16.170887
990.000000	16.239060
991.000000	16.306880
992.000000	16.373700
993.000000	16.439872
994.000000	16.507133
995.000000	16.574813
996.000000	16.617753
997.000000	16.659623
998.000000	16.726952
999.000000	16.768943
1000.000000	16.810098
1001.000000	16.851045
1002.000000	16.892455
1003.000000	16.934123
1004.000000	16.975420
1005.000000	17.016638
1006.000000	17.057785
1007.000000	17.098987
1008.000000	17.139618
1009.000000	17.179755
1010.000000	17.220515
1011.000000	17.262603
1012.000000	17.303832
1013.000000	17.344580
1014.000000	17.386740
1015.000000	17.428983
1016.000000	17.470122
1017.000000	17.511698
1018.000000	17.554033
1019.000000	17.596805
1020.000000	17.664578
1021.000000	17.731420
1022.000000	17.798425
1023.000000	17.866347
1024.000000	17.932733
1025.000000	17.999057
1026.000000	18.066503
1027.000000	18.134295
1028.000000	18.201970
1029.000000	18.269407
1030.000000	18.311625
1031.000000	18.353448
1032.000000	18.395140
1033.000000	18.436505
1034.000000	18.478970
1035.000000	18.521618
1036.000000	18.563600
1037.000000	18.605638
1038.000000	18.647565
1039.000000	18.689608
1040.000000	18.731410
1041.000000	18.772985
1042.000000	18.815143
1043.000000	18.857342
1044.000000	18.898662
1045.000000	18.940008
1046.000000	18.981967
1047.000000	19.023515
1048.000000	19.089935
1049.000000	19.156707
1050.000000	19.224020
1051.000000	19.291792
1052.000000	19.359168
1053.000000	19.426455
1054.000000	19.493850
1055.000000	19.561402
1056.000000	19.629037
1057.000000	19.696310
1058.000000	19.739010
1059.000000	19.781650
1060.000000	19.823810
1061.000000	19.866190
1062.000000	19.908785
1063.000000	19.951017
1064.000000	19.993338
1065.000000	20.035530
1066.000000	20.077023
1067.000000	20.119000
1068.000000	20.160697
1069.000000	20.201980
1070.000000	20.243930
1071.000000	20.285655
1072.000000	20.327122
1073.000000	20.393240
1074.000000	20.459007
1075.000000	20.524355
1076.000000	20.590525
1077.000000	20.656402
1078.000000	20.721943
1079.000000	20.788632
1080.000000	20.854442
1081.000000	20.919835
1082.000000	20.985067
1083.000000	21.026110
1084.000000	21.066565
1085.000000	21.106838
1086.000000	21.147903
1087.000000	21.189220
1088.000000	21.230635
1089.000000	21.271020
1090.000000	21.310985
1091.000000	21.351295
1092.000000	21.391368
1093.000000	21.431693
1094.000000	21.473115
1095.000000	21.514065
1096.000000	21.552997
1097.000000	21.591133
1098.000000	21.629088
1099.000000	21.668257
1100.000000	21.706845
1101.000000	21.745600
1102.000000	21.784533
1103.000000	21.822250
1104.000000	21.883605
1105.000000	21.945485
1106.000000	22.007963
1107.000000	22.070667
1108.000000	22.133423
1109.000000	22.193925
1110.000000	22.255450
1111.000000	22.316350
1112.000000	22.376235
1113.000000	22.435853
1114.000000	22.470962
1115.000000	22.506453
1116.000000	22.541708
1117.000000	22.577047
1118.000000	22.611760
1119.000000	22.645975
1120.000000	22.680010
1121.000000	22.713963
1122.000000	22.748260
1123.000000	22.782227
1124.000000	22.815773
1125.000000	22.847600
1126.000000	22.877513
1127.000000	22.906515
1128.000000	22.935530
1129.000000	22.964208
1130.000000	22.991675
1131.000000	23.016475
1132.000000	23.039595
1133.000000	23.063000
1134.000000	23.086842
1135.000000	23.111815
1136.000000	23.135862
1137.000000	23.157632
1138.000000	23.177038
1139.000000	23.196033
1140.000000	23.214347
1141.000000	23.233817
1142.000000	23.253455
1143.000000	23.272285
1144.000000	23.289767
1145.000000	23.306590
1146.000000	23.349995
1147.000000	23.394280
1148.000000	23.439180
1149.000000	23.484482
1150.000000	23.530255
1151.000000	23.576245
1152.000000	23.622370
1153.000000	23.668582
1154.000000	23.713527
1155.000000	23.756702
1156.000000	23.773463
1157.000000	23.789932
1158.000000	23.804398
1159.000000	23.817178
1160.000000	23.828870
1161.000000	23.838348
1162.000000	23.847372
1163.000000	23.853835
1164.000000	23.858850
1165.000000	23.863145
1166.000000	23.866150
1167.000000	23.868810
1168.000000	23.871412
1169.000000	23.875098
1170.000000	23.877688
1171.000000	23.881870
1172.000000	23.885192
1173.000000	23.890027
1174.000000	23.895788
1175.000000	23.902910
1176.000000	23.912183
1177.000000	23.921610
1178.000000	23.932710
1179.000000	23.943587
1180.000000	23.955838
1181.000000	23.967773
1182.000000	23.980765
1183.000000	23.992630
1184.000000	24.005535
1185.000000	24.019067
1186.000000	24.033238
1187.000000	24.049090
1188.000000	24.066323
1189.000000	24.085735
1190.000000	24.105960
1191.000000	24.129107
1192.000000	24.154140
1193.000000	24.183073
1194.000000	24.214903
1195.000000	24.247605
1196.000000	24.282193
1197.000000	24.317883
1198.000000	24.354932
1199.000000	24.390475
1200.000000	24.427140
1201.000000	24.462837
1202.000000	24.498925
1203.000000	24.534825
1204.000000	24.570163
1205.000000	24.606040
1206.000000	24.640840
1207.000000	24.699775
1208.000000	24.758163
1209.000000	24.818175
1210.000000	24.879403
1211.000000	24.940222
1212.000000	25.000383
1213.000000	25.059735
1214.000000	25.118862
1215.000000	25.177385
1216.000000	25.235672
1217.000000	25.269452
1218.000000	25.302303
1219.000000	25.333468
1220.000000	25.364225
1221.000000	25.395365
1222.000000	25.426070
1223.000000	25.455362
1224.000000	25.484240
1225.000000	25.513505
1226.000000	25.542270
1227.000000	25.569585
1228.000000	25.596640
1229.000000	25.624318
1230.000000	25.650790
1231.000000	25.676058
1232.000000	25.700788
1233.000000	25.726598
1234.000000	25.752018
1235.000000	25.775052
1236.000000	25.796970
1237.000000	25.819710
1238.000000	25.842345
1239.000000	25.863443
1240.000000	25.884148
1241.000000	25.905905
1242.000000	25.952845
1243.000000	25.999178
1244.000000	26.045957
1245.000000	26.094190
1246.000000	26.144438
1247.000000	26.195092
1248.000000	26.246635
1249.000000	26.299455
1250.000000	26.353153
1251.000000	26.407227
1252.000000	26.437435
1253.000000	26.468477
1254.000000	26.499028
1255.000000	26.529872
1256.000000	26.558968
1257.000000	26.587840
1258.000000	26.615848
1259.000000	26.643025
1260.000000	26.668682
1261.000000	26.693000
1262.000000	26.716298
1263.000000	26.738950
1264.000000	26.761180
1265.000000	26.782592
1266.000000	26.803345
1267.000000	26.822717
1268.000000	26.841933
1269.000000	26.861150
1270.000000	26.879890
1271.000000	26.897623
1272.000000	26.913895
1273.000000	26.929402
1274.000000	26.944673
1275.000000	26.959455
1276.000000	26.974552
1277.000000	26.990140
1278.000000	27.005588
1279.000000	27.021440
1280.000000	27.038350
1281.000000	27.056827
1282.000000	27.075948
1283.000000	27.095705
1284.000000	27.116475
1285.000000	27.137832
1286.000000	27.159353
1287.000000	27.181513
1288.000000	27.229582
1289.000000	27.276970
1290.000000	27.323753
1291.000000	27.369522
1292.000000	27.414575
1293.000000	27.459718
1294.000000	27.503992
1295.000000	27.547175
1296.000000	27.590758
1297.000000	27.633632
1298.000000	27.649938
1299.000000	27.666820
1300.000000	27.683457
1301.000000	27.699932
1302.000000	27.716885
1303.000000	27.732660
1304.000000	27.747630
1305.000000	27.763110
1306.000000	27.778085
1307.000000	27.791537
1308.000000	27.804188
1309.000000	27.815787
1310.000000	27.826505
1311.000000	27.836728
1312.000000	27.846042
1313.000000	27.854177
1314.000000	27.861158
1315.000000	27.867145
1316.000000	27.871612
1317.000000	27.875070
1318.000000	27.877960
1319.000000	27.879875
1320.000000	27.880205
1321.000000	27.879172
1322.000000	27.878575
1323.000000	27.878062
1324.000000	27.876420
1325.000000	27.873340
1326.000000	27.869575
1327.000000	27.865290
1328.000000	27.860425
1329.000000	27.854845
1330.000000	27.848630
1331.000000	27.841485
1332.000000	27.832178
1333.000000	27.820505
1334.000000	27.807342
1335.000000	27.793600
1336.000000	27.754080
1337.000000	27.713795
1338.000000	27.672000
1339.000000	27.628210
1340.000000	27.582883
1341.000000	27.535510
1342.000000	27.486220
1343.000000	27.436388
1344.000000	27.385262
1345.000000	27.331480
1346.000000	27.300080
1347.000000	27.267543
1348.000000	27.233238
1349.000000	27.196198
1350.000000	27.157090
1351.000000	27.116678
1352.000000	27.074698
1353.000000	27.032210
1354.000000	26.993127
1355.000000	26.956933
1356.000000	26.921722
1357.000000	26.885758
1358.000000	26.850957
1359.000000	26.817985
1360.000000	26.790357
1361.000000	26.769543
1362.000000	26.750912
1363.000000	26.706077
1364.000000	26.658268
1365.000000	26.607825
1366.000000	26.553242
1367.000000	26.497958
1368.000000	26.440208
1369.000000	26.376862
1370.000000	26.303328
1371.000000	26.216787
1372.000000	26.092770
1373.000000	25.979335
1374.000000	25.851345
1375.000000	25.708655
1376.000000	25.554952
1377.000000	25.387773
1378.000000	25.183335
1379.000000	24.971570
1380.000000	24.761553
1381.000000	24.556115
1382.000000	24.386390
1383.000000	24.232868
1384.000000	24.090255
1385.000000	23.962682
1386.000000	23.850180
1387.000000	23.757580
1388.000000	23.706957
1389.000000	23.671202
1390.000000	23.640470
1391.000000	23.617617
1392.000000	23.599410
1393.000000	23.557970
1394.000000	23.524647
1395.000000	23.499830
1396.000000	23.477067
1397.000000	23.444402
1398.000000	23.407267
1399.000000	23.373200
1400.000000	23.345180
1401.000000	23.308253
1402.000000	23.261992
1403.000000	23.232432
1404.000000	23.199063
1405.000000	23.154097
1406.000000	23.104125
1407.000000	23.054040
1408.000000	23.004313
1409.000000	22.945315
1410.000000	22.874970
1411.000000	22.800838
1412.000000	22.728693
1413.000000	22.661503
1414.000000	22.591400
1415.000000	22.519433
1416.000000	22.443110
1417.000000	22.369325
1418.000000	22.271750
1419.000000	22.177595
1420.000000	22.084605
1421.000000	21.995623
1422.000000	21.908842
1423.000000	21.822715
1424.000000	21.736615
1425.000000	21.653910
1426.000000	21.576073
1427.000000	21.500525
1428.000000	21.448867
1429.000000	21.398132
1430.000000	21.350070
1431.000000	21.307275
1432.000000	21.266040
1433.000000	21.225080
1434.000000	21.185630
1435.000000	21.148128
1436.000000	21.114258
1437.000000	21.081183
1438.000000	21.050400
1439.000000	21.020535
1440.000000	20.992787
1441.000000	20.964020
1442.000000	20.936455
1443.000000	20.909337
1444.000000	20.883520
1445.000000	20.860152
1446.000000	20.811667
1447.000000	20.760542
1448.000000	20.708707
1449.000000	20.658732
1450.000000	20.610352
1451.000000	20.562470
1452.000000	20.513512
1453.000000	20.464247
1454.000000	20.416743
1455.000000	20.366492
1456.000000	20.341495
1457.000000	20.317945
1458.000000	20.294880
1459.000000	20.269850
1460.000000	20.244037
1461.000000	20.217100
1462.000000	20.190987
1463.000000	20.165960
1464.000000	20.139955
1465.000000	20.115030
1466.000000	20.089380
1467.000000	20.064872
1468.000000	20.040075
1469.000000	20.017070
1470.000000	19.995365
1471.000000	19.974342
1472.000000	19.953740
1473.000000	19.932795
1474.000000	19.911325
1475.000000	19.890295
1476.000000	19.870150
1477.000000	19.851342
1478.000000	19.834355
1479.000000	19.817322
1480.000000	19.800238
1481.000000	19.784300
1482.000000	19.768227
1483.000000	19.753115
1484.000000	19.739517
1485.000000	19.726238
1486.000000	19.713658
1487.000000	19.701773
1488.000000	19.689542
1489.000000	19.677118
1490.000000	19.664413
1491.000000	19.652715
1492.000000	19.642158
1493.000000	19.632153
1494.000000	19.623265
1495.000000	19.616645
1496.000000	19.611635
1497.000000	19.607620
1498.000000	19.606425
1499.000000	19.607283
1500.000000	19.609253
1501.000000	19.613477
1502.000000	19.620685
1503.000000	19.631198
1504.000000	19.643800
1505.000000	19.657637
1506.000000	19.672620
1507.000000	19.689335
1508.000000	19.707232
1509.000000	19.726537
1510.000000	19.748603
1511.000000	19.771298
1512.000000	19.794482
1513.000000	19.816988
1514.000000	19.840630
1515.000000	19.864770
1516.000000	19.890142
1517.000000	19.914725
1518.000000	19.938775
1519.000000	19.963405
1520.000000	19.987230
1521.000000	20.010225
1522.000000	20.032805
1523.000000	20.056203
1524.000000	20.078965
1525.000000	20.101597
1526.000000	20.123475
1527.000000	20.145900
1528.000000	20.169000
1529.000000	20.191657
1530.000000	20.213423
1531.000000	20.235950
1532.000000	20.258040
1533.000000	20.279522
1534.000000	20.300232
1535.000000	20.320255
1536.000000	20.339533
1537.000000	20.357900
1538.000000	20.375072
1539.000000	20.391893
1540.000000	20.408865
1541.000000	20.424780
1542.000000	20.440920
1543.000000	20.457442
1544.000000	20.473835
1545.000000	20.490975
1546.000000	20.534347
1547.000000	20.579442
1548.000000	20.626067
1549.000000	20.673415
1550.000000	20.721930
1551.000000	20.772140
1552.000000	20.822740
1553.000000	20.874035
1554.000000	20.925908
1555.000000	20.977105
1556.000000	21.001855
1557.000000	21.024863
1558.000000	21.046485
1559.000000	21.066605
1560.000000	21.084240
1561.000000	21.099453
1562.000000	21.112637
1563.000000	21.123010
1564.000000	21.130280
1565.000000	21.135710
1566.000000	21.139623
1567.000000	21.141510
1568.000000	21.141525
1569.000000	21.140600
1570.000000	21.138918
1571.000000	21.136643
1572.000000	21.134400
1573.000000	21.132307
1574.000000	21.130220
1575.000000	21.128843
1576.000000	21.129240
1577.000000	21.130925
1578.000000	21.133873
1579.000000	21.137742
1580.000000	21.143873
1581.000000	21.151522
1582.000000	21.159575
1583.000000	21.169235
1584.000000	21.180982
1585.000000	21.194780
1586.000000	21.208775
1587.000000	21.223325
1588.000000	21.238717
1589.000000	21.254725
1590.000000	21.271012
1591.000000	21.287690
1592.000000	21.305622
1593.000000	21.323583
1594.000000	21.342275
1595.000000	21.360655
1596.000000	21.379198
1597.000000	21.399283
1598.000000	21.419847
1599.000000	21.440800
1600.000000	21.462905
1601.000000	21.485757
1602.000000	21.509075
1603.000000	21.533090
1604.000000	21.557740
1605.000000	21.607610
1606.000000	21.657418
1607.000000	21.706947
1608.000000	21.756588
1609.000000	21.805785
1610.000000	21.853448
1611.000000	21.900465
1612.000000	21.947030
1613.000000	21.991930
1614.000000	22.035132
1615.000000	22.052478
1616.000000	22.069545
1617.000000	22.086333
1618.000000	22.101183
1619.000000	22.115445
1620.000000	22.129020
1621.000000	22.142163
1622.000000	22.154675
1623.000000	22.167715
1624.000000	22.181348
1625.000000	22.194567
1626.000000	22.207443
1627.000000	22.220425
1628.000000	22.234368
1629.000000	22.248502
1630.000000	22.262738
1631.000000	22.275800
1632.000000	22.288653
1633.000000	22.301305
1634.000000	22.313245
1635.000000	22.324527
1636.000000	22.335312
1637.000000	22.345300
1638.000000	22.353707
1639.000000	22.362208
1640.000000	22.369598
1641.000000	22.377215
1642.000000	22.383712
1643.000000	22.389708
1644.000000	22.394710
1645.000000	22.399892
1646.000000	22.404525
1647.000000	22.407788
1648.000000	22.410495
1649.000000	22.411863
1650.000000	22.412498
1651.000000	22.411403
1652.000000	22.384858
1653.000000	22.356858
1654.000000	22.326875
1655.000000	22.294137
1656.000000	22.259358
1657.000000	22.221590
1658.000000	22.181028
1659.000000	22.136710
1660.000000	22.089582
1661.000000	22.039043
1662.000000	22.010435
1663.000000	21.977007
1664.000000	21.940912
1665.000000	21.901390
1666.000000	21.859480
1667.000000	21.814438
1668.000000	21.766250
1669.000000	21.715757
1670.000000	21.662190
1671.000000	21.607690
1672.000000	21.550800
1673.000000	21.493223
1674.000000	21.434440
1675.000000	21.375170
1676.000000	21.288608
1677.000000	21.202150
1678.000000	21.114920
1679.000000	21.027248
1680.000000	20.937977
1681.000000	20.846745
1682.000000	20.753535
1683.000000	20.659995
1684.000000	20.564860
1685.000000	20.471655
1686.000000	20.405010
1687.000000	20.341442
1688.000000	20.284087
1689.000000	20.232990
1690.000000	20.191522
1691.000000	20.159208
1692.000000	20.137113
1693.000000	20.122592
1694.000000	20.117522
1695.000000	20.118085
1696.000000	20.124850
1697.000000	20.134543
1698.000000	20.145132
1699.000000	20.155725
1700.000000	20.164713
1701.000000	20.171495
1702.000000	20.175565
1703.000000	20.177123
1704.000000	20.175808
1705.000000	20.170935
1706.000000	20.162250
1707.000000	20.151598
1708.000000	20.137957
1709.000000	20.121388
1710.000000	20.100748
1711.000000	20.075503
1712.000000	20.046345
1713.000000	20.012580
1714.000000	19.948465
1715.000000	19.879742
1716.000000	19.805643
1717.000000	19.727832
1718.000000	19.645920
1719.000000	19.560572
1720.000000	19.474502
1721.000000	19.390155
1722.000000	19.308000
1723.000000	19.231335
1724.000000	19.185045
1725.000000	19.146697
1726.000000	19.116248
1727.000000	19.093623
1728.000000	19.078792
1729.000000	19.071787
1730.000000	19.070632
1731.000000	19.075133
1732.000000	19.083708
1733.000000	19.094638
1734.000000	19.108998
1735.000000	19.124237
1736.000000	19.142402
1737.000000	19.161117
1738.000000	19.182145
1739.000000	19.204713
1740.000000	19.230065
1741.000000	19.256238
1742.000000	19.283650
1743.000000	19.311970
1744.000000	19.340120
1745.000000	19.369008
1746.000000	19.397710
1747.000000	19.452020
1748.000000	19.505218
1749.000000	19.557173
1750.000000	19.606932
1751.000000	19.654782
1752.000000	19.700175
1753.000000	19.744020
1754.000000	19.785855
1755.000000	19.824903
1756.000000	19.861945
1757.000000	19.871652
1758.000000	19.880472
1759.000000	19.888247
1760.000000	19.895700
1761.000000	19.902572
1762.000000	19.908927
1763.000000	19.916297
1764.000000	19.924727
1765.000000	19.935292
1766.000000	19.947020
1767.000000	19.960490
1768.000000	19.974760
1769.000000	19.990378
1770.000000	20.007433
1771.000000	20.026210
1772.000000	20.046292
1773.000000	20.066167
1774.000000	20.085875
1775.000000	20.105250
1776.000000	20.124237
1777.000000	20.143097
1778.000000	20.161743
1779.000000	20.180417
1780.000000	20.198095
1781.000000	20.213902
1782.000000	20.228280
1783.000000	20.241142
1784.000000	20.253335
1785.000000	20.263850
1786.000000	20.272848
1787.000000	20.279073
1788.000000	20.284218
1789.000000	20.287670
1790.000000	20.289995
1791.000000	20.291715
1792.000000	20.294475
1793.000000	20.298048
1794.000000	20.301935
1795.000000	20.306062
1796.000000	20.310675
1797.000000	20.315248
1798.000000	20.319197
1799.000000	20.324323
1800.000000	20.330707
1801.000000	20.339073
1802.000000	20.347110
1803.000000	20.353012
1804.000000	20.357610
1805.000000	20.363657
1806.000000	20.371670
1807.000000	20.380018
1808.000000	20.387580
1809.000000	20.393192
1810.000000	20.399045
1811.000000	20.405593
1812.000000	20.412723
1813.000000	20.420195
1814.000000	20.453318
1815.000000	20.485275
1816.000000	20.488850
1817.000000	20.514038
1818.000000	20.538477
1819.000000	20.566835
1820.000000	20.598948
1821.000000	20.632652
1822.000000	20.663680
1823.000000	20.690053
1824.000000	20.687683
1825.000000	20.683912
1826.000000	20.707428
1827.000000	20.711870
1828.000000	20.721138
1829.000000	20.729175
1830.000000	20.734098
1831.000000	20.735473
1832.000000	20.735672
1833.000000	20.738875
1834.000000	20.745873
1835.000000	20.756470
1836.000000	20.770340
1837.000000	20.784197
1838.000000	20.795675
1839.000000	20.806863
1840.000000	20.820085
1841.000000	20.839167
1842.000000	20.861888
1843.000000	20.880897
1844.000000	20.891450
1845.000000	20.894785
1846.000000	20.897150
1847.000000	20.906680
1848.000000	20.924160
1849.000000	20.939260
1850.000000	20.942372
1851.000000	20.932682
1852.000000	20.920500
1853.000000	20.915640
1854.000000	20.919767
1855.000000	20.927338
1856.000000	20.927410
1857.000000	20.914193
1858.000000	20.893108
1859.000000	20.874247
1860.000000	20.861957
1861.000000	20.853455
1862.000000	20.841812
1863.000000	20.822207
1864.000000	20.793795
1865.000000	20.759172
1866.000000	20.723343
1867.000000	20.686970
1868.000000	20.644417
1869.000000	20.598427
1870.000000	20.555123
1871.000000	20.486213
1872.000000	20.417805
1873.000000	20.351010
1874.000000	20.284975
1875.000000	20.217775
1876.000000	20.146360
1877.000000	20.069083
1878.000000	19.986205
1879.000000	19.892943
1880.000000	19.758140
1881.000000	19.637052
1882.000000	19.508600
1883.000000	19.373420
1884.000000	19.231710
1885.000000	19.083050
1886.000000	18.927580
1887.000000	18.763350
1888.000000	18.565503
1889.000000	18.362907
1890.000000	18.183350
1891.000000	18.001435
1892.000000	17.813135
1893.000000	17.617965
1894.000000	17.415698
1895.000000	17.183190
1896.000000	16.945998
1897.000000	16.707260
1898.000000	16.496097
1899.000000	16.286770
1900.000000	16.052808
1901.000000	15.819000
1902.000000	15.585983
1903.000000	15.355878
1904.000000	15.132410
1905.000000	14.941815
1906.000000	14.760422
1907.000000	14.562087
1908.000000	14.368085
1909.000000	14.175588
1910.000000	14.012043
1911.000000	13.854968
1912.000000	13.708052
1913.000000	13.570015
1914.000000	13.438643
1915.000000	13.287748
1916.000000	13.139040
1917.000000	13.019438
1918.000000	12.905165
1919.000000	12.800700
1920.000000	12.704967
1921.000000	12.616027
1922.000000	12.530757
1923.000000	12.447917
1924.000000	12.367507
1925.000000	12.314682
1926.000000	12.270577
1927.000000	12.233393
1928.000000	12.201543
1929.000000	12.172095
1930.000000	12.146460
1931.000000	12.121385
1932.000000	12.098553
1933.000000	12.080230
1934.000000	12.066090
1935.000000	12.055830
1936.000000	12.047585
1937.000000	12.041143
1938.000000	12.040610
1939.000000	12.042452
1940.000000	12.045380
1941.000000	12.052560
1942.000000	12.062142
1943.000000	12.073530
1944.000000	12.087530
1945.000000	12.105297
1946.000000	12.124818
1947.000000	12.146022
1948.000000	12.166260
1949.000000	12.188055
1950.000000	12.210997
1951.000000	12.234565
1952.000000	12.260028
1953.000000	12.287467
1954.000000	12.316135
1955.000000	12.345498
1956.000000	12.374530
1957.000000	12.403925
1958.000000	12.434030
1959.000000	12.464910
1960.000000	12.495540
1961.000000	12.526777
1962.000000	12.558483
1963.000000	12.589218
1964.000000	12.619895
1965.000000	12.649728
1966.000000	12.678233
1967.000000	12.706672
1968.000000	12.735117
1969.000000	12.762647
1970.000000	12.791045
1971.000000	12.843592
1972.000000	12.896087
1973.000000	12.949162
1974.000000	13.001538
1975.000000	13.052805
1976.000000	13.107005
1977.000000	13.160288
1978.000000	13.213973
1979.000000	13.268845
1980.000000	13.322675
1981.000000	13.352697
1982.000000	13.382345
1983.000000	13.410955
1984.000000	13.440655
1985.000000	13.471085
1986.000000	13.500387
1987.000000	13.530278
1988.000000	13.559800
1989.000000	13.588930
1990.000000	13.618380
1991.000000	13.648050
1992.000000	13.677023
1993.000000	13.706288
1994.000000	13.734627
1995.000000	13.761605
1996.000000	13.787990
1997.000000	13.814445
1998.000000	13.839977
1999.000000	13.887867
2000.000000	13.935810
2001.000000	13.957303
2002.000000	13.977127
2003.000000	14.020492
2004.000000	14.062198
2005.000000	14.103180
2006.000000	14.142327
2007.000000	14.178828
2008.000000	14.212695
2009.000000	14.220887
2010.000000	14.226340
2011.000000	14.254355
2012.000000	14.280320
2013.000000	14.279735
2014.000000	14.277160
2015.000000	14.272755
2016.000000	14.265185
2017.000000	14.256868
2018.000000	14.246593
2019.000000	14.234542
2020.000000	14.219560
2021.000000	14.203150
2022.000000	14.183517
2023.000000	14.161900
2024.000000	14.138760
2025.000000	14.112963
2026.000000	14.086058
2027.000000	14.057002
2028.000000	14.025760
2029.000000	13.992247
2030.000000	13.932847
2031.000000	13.896207
2032.000000	13.858855
2033.000000	13.819110
2034.000000	13.752610
2035.000000	13.684453
2036.000000	13.615210
2037.000000	13.543192
2038.000000	13.469495
2039.000000	13.394403
2040.000000	13.343030
2041.000000	13.265252
2042.000000	13.186577
2043.000000	13.107295
2044.000000	13.051805
2045.000000	12.996140
2046.000000	12.940025
2047.000000	12.885025
2048.000000	12.832602
2049.000000	12.782090
2050.000000	12.734402
2051.000000	12.689837
2052.000000	12.650462
2053.000000	12.615590
2054.000000	12.585800
2055.000000	12.562675
2056.000000	12.546177
2057.000000	12.536008
2058.000000	12.531105
2059.000000	12.532300
2060.000000	12.539795
2061.000000	12.553705
2062.000000	12.571527
2063.000000	12.593250
2064.000000	12.619173
2065.000000	12.647820
2066.000000	12.679190
2067.000000	12.713227
2068.000000	12.774505
2069.000000	12.837195
2070.000000	12.899447
2071.000000	12.961625
2072.000000	12.999085
2073.000000	13.036515
2074.000000	13.072877
2075.000000	13.132780
2076.000000	13.190110
2077.000000	13.245665
2078.000000	13.274027
2079.000000	13.300255
2080.000000	13.324280
2081.000000	13.345063
2082.000000	13.388330
2083.000000	13.428720
2084.000000	13.466112
2085.000000	13.476337
2086.000000	13.484660
2087.000000	13.490520
2088.000000	13.494265
2089.000000	13.495310
2090.000000	13.494505
2091.000000	13.492218
2092.000000	13.487025
2093.000000	13.480957
2094.000000	13.475305
2095.000000	13.469030
2096.000000	13.461885
2097.000000	13.454512
2098.000000	13.446372
2099.000000	13.438735
2100.000000	13.431105
2101.000000	13.423625
2102.000000	13.417658
2103.000000	13.411812
2104.000000	13.405410
2105.000000	13.398173
2106.000000	13.391160
2107.000000	13.409417
2108.000000	13.403133
2109.000000	13.396405
2110.000000	13.388905
2111.000000	13.381255
2112.000000	13.373455
2113.000000	13.364865
2114.000000	13.356072
2115.000000	13.346747
2116.000000	13.336392
2117.000000	13.299995
2118.000000	13.287738
2119.000000	13.274642
2120.000000	13.259982
2121.000000	13.243793
2122.000000	13.226145
2123.000000	13.208130
2124.000000	13.188733
2125.000000	13.168623
2126.000000	13.172580
2127.000000	13.149370
2128.000000	13.124535
2129.000000	13.098710
2130.000000	13.072735
2131.000000	13.046387
2132.000000	13.018630
2133.000000	12.989892
2134.000000	12.959800
2135.000000	12.928245
2136.000000	12.870685
2137.000000	12.837330
2138.000000	12.803408
2139.000000	12.768660
2140.000000	12.733202
2141.000000	12.696000
2142.000000	12.658328
2143.000000	12.619245
2144.000000	12.554818
2145.000000	12.515645
2146.000000	12.475877
2147.000000	12.435950
2148.000000	12.394895
2149.000000	12.328543
2150.000000	12.262715
2151.000000	12.197088
2152.000000	12.131763
2153.000000	12.066670
2154.000000	12.027135
2155.000000	11.963218
2156.000000	11.899770
2157.000000	11.838020
2158.000000	11.777770
2159.000000	11.743795
2160.000000	11.735545
2161.000000	11.705758
2162.000000	11.677463
2163.000000	11.650173
2164.000000	11.624510
2165.000000	11.600632
2166.000000	11.579348
2167.000000	11.558398
2168.000000	11.539145
2169.000000	11.521738
2170.000000	11.454740
2171.000000	11.437080
2172.000000	11.395022
2173.000000	11.355455
2174.000000	11.316273
2175.000000	11.301773
2176.000000	11.286150
2177.000000	11.246393
2178.000000	11.207220
2179.000000	11.166832
2180.000000	11.151915
2181.000000	11.112455
2182.000000	11.097033
2183.000000	11.079472
2184.000000	11.060173
2185.000000	11.014482
2186.000000	10.967567
2187.000000	10.942010
2188.000000	10.913265
2189.000000	10.855340
2190.000000	10.793905
2191.000000	10.727602
2192.000000	10.631505
2193.000000	10.555708
2194.000000	10.475343
2195.000000	10.365547
2196.000000	10.251347
2197.000000	10.133593
2198.000000	10.011962
2199.000000	9.914145
2200.000000	9.814545
2201.000000	9.713830
2202.000000	9.638702
2203.000000	9.515540
2204.000000	9.395510
2205.000000	9.304832
2206.000000	9.218255
2207.000000	9.138350
2208.000000	9.065367
2209.000000	8.999480
2210.000000	8.942457
2211.000000	8.868198
2212.000000	8.801815
2213.000000	8.793590
2214.000000	8.793167
2215.000000	8.800293
2216.000000	8.814895
2217.000000	8.835445
2218.000000	8.837245
2219.000000	8.869252
2220.000000	8.903563
2221.000000	8.966992
2222.000000	9.033342
2223.000000	9.076147
2224.000000	9.120210
2225.000000	9.163042
2226.000000	9.204902
2227.000000	9.245592
2228.000000	9.333840
2229.000000	9.369343
2230.000000	9.402342
2231.000000	9.432800
2232.000000	9.459885
2233.000000	9.508570
2234.000000	9.553345
2235.000000	9.593663
2236.000000	9.632252
2237.000000	9.667858
2238.000000	9.674290
2239.000000	9.702000
2240.000000	9.727177
2241.000000	9.748090
2242.000000	9.766370
2243.000000	9.756260
2244.000000	9.743272
2245.000000	9.729202
2246.000000	9.711700
2247.000000	9.691667
2248.000000	9.669700
2249.000000	9.647290
2250.000000	9.622508
2251.000000	9.571492
2252.000000	9.520430
2253.000000	9.492770
2254.000000	9.465675
2255.000000	9.437978
2256.000000	9.410787
2257.000000	9.383558
2258.000000	9.357693
2259.000000	9.332595
2260.000000	9.309285
2261.000000	9.313525
2262.000000	9.318478
2263.000000	9.327530
2264.000000	9.312890
2265.000000	9.300660
2266.000000	9.291512
2267.000000	9.286025
2268.000000	9.307775
2269.000000	9.332260
2270.000000	9.358925
2271.000000	9.386215
2272.000000	9.390847
2273.000000	9.371647
2274.000000	9.404765
2275.000000	9.438550
2276.000000	9.497983
2277.000000	9.532702
2278.000000	9.542782
2279.000000	9.551868
2280.000000	9.561058
2281.000000	9.570803
2282.000000	9.630345
2283.000000	9.688318
2284.000000	9.719700
2285.000000	9.727665
2286.000000	9.709167
2287.000000	9.739300
2288.000000	9.768940
2289.000000	9.798380
2290.000000	9.827750
2291.000000	9.857780
2292.000000	9.862377
2293.000000	9.867448
2294.000000	9.872512
2295.000000	9.901613
2296.000000	9.931162
2297.000000	9.935813
2298.000000	9.941555
2299.000000	9.949085
2300.000000	9.956515
2301.000000	9.988927
2302.000000	10.021480
2303.000000	10.055442
2304.000000	10.090190
2305.000000	10.125790
2306.000000	10.137755
2307.000000	10.151542
2308.000000	10.165922
2309.000000	10.180532
2310.000000	10.220828
2311.000000	10.236520
2312.000000	10.253100
2313.000000	10.269983
2314.000000	10.287187
2315.000000	10.303588
2316.000000	10.344243
2317.000000	10.383055
2318.000000	10.446013
2319.000000	10.482852
2320.000000	10.493847
2321.000000	10.503655
2322.000000	10.511885
2323.000000	10.517392
2324.000000	10.520993
2325.000000	10.523195
2326.000000	10.524470
2327.000000	10.525057
2328.000000	10.523692
2329.000000	10.545753
2330.000000	10.568100
2331.000000	10.590170
2332.000000	10.612303
2333.000000	10.635058
2334.000000	10.657730
2335.000000	10.681617
2336.000000	10.704823
2337.000000	10.728525
2338.000000	10.729160
2339.000000	10.730652
2340.000000	10.755958
2341.000000	10.781713
2342.000000	10.807755
2343.000000	10.834417
2344.000000	10.861625
2345.000000	10.863952
2346.000000	10.867762
2347.000000	10.872618
2348.000000	10.901375
2349.000000	10.930585
2350.000000	10.936765
2351.000000	10.942830
2352.000000	10.949047
2353.000000	10.956125
2354.000000	10.964037
2355.000000	10.996495
2356.000000	11.028253
2357.000000	11.060075
2358.000000	11.067115
2359.000000	11.073570
2360.000000	11.079773
2361.000000	11.085913
2362.000000	11.115985
2363.000000	11.144660
2364.000000	11.172750
2365.000000	11.201033
2366.000000	11.229245
2367.000000	11.231402
2368.000000	11.232890
2369.000000	11.259367
2370.000000	11.286182
2371.000000	11.338698
2372.000000	11.367102
2373.000000	11.370840
2374.000000	11.350040
2375.000000	11.328855
2376.000000	11.332162
2377.000000	11.361500
2378.000000	11.416770
2379.000000	11.421420
2380.000000	11.424115
2381.000000	11.401003
2382.000000	11.402627
2383.000000	11.429105
2384.000000	11.455282
2385.000000	11.455695
2386.000000	11.430933
2387.000000	11.404725
2388.000000	11.377433
2389.000000	11.400032
2390.000000	11.422625
2391.000000	11.444447
2392.000000	11.439872
2393.000000	11.434997
2394.000000	11.454012
2395.000000	11.497187
2396.000000	11.539530
2397.000000	11.581938
2398.000000	11.624612
2399.000000	11.616375
2400.000000	11.581753
2401.000000	11.547025
2402.000000	11.537162
2403.000000	11.525768
2404.000000	11.513043
2405.000000	11.499445
2406.000000	11.485048
2407.000000	11.445053
2408.000000	11.403868
2409.000000	11.386017
2410.000000	11.392550
2411.000000	11.422973
2412.000000	11.402338
2413.000000	11.381332
2414.000000	11.360905
2415.000000	11.315898
2416.000000	11.294802
2417.000000	11.295897
2418.000000	11.270888
2419.000000	11.244975
2420.000000	11.193748
2421.000000	11.116043
2422.000000	11.062223
2423.000000	11.031300
2424.000000	11.048663
2425.000000	11.064980
2426.000000	11.031335
2427.000000	10.998605
2428.000000	10.991025
2429.000000	10.982873
2430.000000	10.999455
2431.000000	11.041105
2432.000000	11.083075
2433.000000	11.076178
2434.000000	10.994538
2435.000000	10.937860
2436.000000	10.955358
2437.000000	10.948470
2438.000000	10.889283
2439.000000	10.830613
2440.000000	10.796922
2441.000000	10.737637
2442.000000	10.703535
2443.000000	10.694128
2444.000000	10.684745
2445.000000	10.649832
2446.000000	10.591245
2447.000000	10.580010
2448.000000	10.596050
2449.000000	10.612525
2450.000000	10.604955
2451.000000	10.622760
2452.000000	10.615343
2453.000000	10.583773
2454.000000	10.577925
2455.000000	10.622590
2456.000000	10.616677
2457.000000	10.612837
2458.000000	10.610233
2459.000000	10.609105
2460.000000	10.633627
2461.000000	10.584380
2462.000000	10.585258
2463.000000	10.661682
2464.000000	10.763990
2465.000000	10.866392
2466.000000	10.995073
2467.000000	11.126880
2468.000000	11.183945
2469.000000	11.291915
2470.000000	11.374478
2471.000000	11.532092
2472.000000	11.668782
2473.000000	11.804208
2474.000000	11.839118
2475.000000	11.904122
2476.000000	11.968452
2477.000000	12.056715
2478.000000	12.196082
2479.000000	12.359438
2480.000000	12.500835
2481.000000	12.617353
2482.000000	12.684515
2483.000000	12.729108
2484.000000	12.924443
2485.000000	13.093235
2486.000000	13.216720
2487.000000	13.264945
2488.000000	13.388835
2489.000000	13.465905
2490.000000	13.613672
2491.000000	13.840805
2492.000000	14.113283
2493.000000	14.313723
2494.000000	14.509915
2495.000000	14.612723
2496.000000	14.735558
2497.000000	14.983313
2498.000000	15.211437
2499.000000	15.443793
2500.000000	15.593878
2501.000000	19.161458
2502.000000	22.707128
2503.000000	26.300698
2504.000000	29.924585
2505.000000	33.816230
2506.000000	38.035608
2507.000000	41.856270
2508.000000	45.545915
2509.000000	49.905242
2510.000000	54.000000
2511.000000	54.700000
2512.000000	55.500000
2513.000000	56.500000
2514.000000	57.700000
2515.000000	59.100000
2516.000000	59.900000
2517.000000	60.700000
2518.000000	62.100000
2519.000000	62.900000
2520.000000	64.500000
2521.000000	66.000000
2522.000000	67.000000
2523.000000	67.800000
2524.000000	68.300000
2525.000000	68.800000
2526.000000	70.200000
2527.000000	71.900000
2528.000000	72.700000
2529.000000	73.500000
2530.000000	73.100000
2531.000000	72.800000
2532.000000	73.400000
2533.000000	74.500000
2534.000000	76.300000
2535.000000	77.500000
2536.000000	78.200000
2537.000000	78.200000
2538.000000	78.400000
2539.000000	79.000000
2540.000000	80.200000
2541.000000	81.900000
2542.000000	83.200000
2543.000000	84.300000
2544.000000	83.800000
2545.000000	83.100000
2546.000000	82.900000
2547.000000	84.000000
2548.000000	85.700000
2549.000000	86.300000
2550.000000	87.800000
2551.000000	88.100000
2552.000000	87.700000
2553.000000	87.400000
2554.000000	88.500000
2555.000000	91.000000
2556.000000	93.100000
2557.000000	94.000000
2558.000000	94.100000
2559.000000	94.300000
2560.000000	93.700000
2561.000000	94.600000
2562.000000	96.600000
2563.000000	98.000000
2564.000000	98.100000
2565.000000	97.200000
2566.000000	95.500000
2567.000000	94.900000
2568.000000	95.000000
2569.000000	96.200000
2570.000000	97.300000
2571.000000	97.300000
2572.000000	96.800000
2573.000000	95.700000
2574.000000	95.500000
2575.000000	95.900000
2576.000000	96.800000
2577.000000	97.400000
2578.000000	97.900000
2579.000000	97.600000
2580.000000	97.100000
2581.000000	96.600000
2582.000000	96.900000
2583.000000	98.700000
2584.000000	100.100000
2585.000000	100.300000
2586.000000	100.300000
2587.000000	100.100000
2588.000000	99.500000
2589.000000	99.300000
2590.000000	100.300000
2591.000000	101.700000
2592.000000	101.900000
2593.000000	100.800000
2594.000000	99.600000
2595.000000	98.900000
2596.000000	99.100000
2597.000000	100.000000
2598.000000	101.000000
2599.000000	101.600000
2600.000000	101.900000
2601.000000	101.400000
2602.000000	100.500000
2603.000000	100.600000
2604.000000	101.300000
2605.000000	101.700000
2606.000000	102.400000
2607.000000	102.600000
2608.000000	101.800000
2609.000000	100.800000
2610.000000	99.300000
2611.000000	98.600000
2612.000000	98.900000
2613.000000	99.400000
2614.000000	100.400000
2615.000000	101.300000
2616.000000	100.400000
2617.000000	98.700000
2618.000000	98.900000
2619.000000	100.300000
2620.000000	101.500000
2621.000000	102.600000
2622.000000	103.300000
2623.000000	102.300000
2624.000000	100.300000
2625.000000	99.600000
2626.000000	100.400000
2627.000000	101.700000
2628.000000	102.300000
2629.000000	102.000000
2630.000000	101.000000
2631.000000	99.500000
2632.000000	98.300000
2633.000000	98.800000
2634.000000	99.900000
2635.000000	100.700000
2636.000000	100.500000
2637.000000	99.800000
2638.000000	99.600000
2639.000000	98.800000
2640.000000	98.700000
2641.000000	100.000000
2642.000000	100.900000
2643.000000	101.000000
2644.000000	101.300000
2645.000000	100.200000
2646.000000	99.200000
2647.000000	99.500000
2648.000000	99.700000
2649.000000	101.000000
2650.000000	101.800000
2651.000000	101.600000
2652.000000	101.000000
2653.000000	100.400000
2654.000000	99.200000
2655.000000	99.900000
2656.000000	101.000000
2657.000000	101.700000
2658.000000	101.600000
2659.000000	100.600000
2660.000000	100.000000
2661.000000	98.900000
2662.000000	98.900000
2663.000000	99.700000
2664.000000	101.200000
2665.000000	101.600000
2666.000000	101.900000
2667.000000	101.400000
2668.000000	100.700000
2669.000000	101.000000
2670.000000	101.200000
2671.000000	101.600000
2672.000000	102.800000
2673.000000	102.400000
2674.000000	100.900000
2675.000000	100.200000
2676.000000	99.700000
2677.000000	99.600000
2678.000000	99.900000
2679.000000	99.300000
2680.000000	98.800000
2681.000000	99.500000
2682.000000	98.700000
2683.000000	99.100000
2684.000000	100.700000
2685.000000	101.500000
2686.000000	101.300000
2687.000000	101.000000
2688.000000	99.800000
2689.000000	99.800000
2690.000000	101.600000
2691.000000	101.100000
2692.000000	101.400000
2693.000000	102.000000
2694.000000	101.200000
2695.000000	100.000000
2696.000000	100.300000
2697.000000	101.400000
2698.000000	103.000000
2699.000000	104.100000
2700.000000	103.100000
2701.000000	103.100000
2702.000000	101.900000
2703.000000	101.600000
2704.000000	100.700000
2705.000000	102.100000
2706.000000	103.300000
2707.000000	102.400000
2708.000000	102.200000
2709.000000	100.100000
2710.000000	99.800000
2711.000000	99.800000
2712.000000	101.500000
2713.000000	102.200000
2714.000000	103.600000
2715.000000	102.700000
2716.000000	100.000000
2717.000000	99.300000
2718.000000	98.700000
2719.000000	100.500000
2720.000000	101.100000
2721.000000	101.100000
2722.000000	100.900000
2723.000000	99.300000
2724.000000	98.600000
2725.000000	98.700000
2726.000000	99.400000
2727.000000	100.300000
2728.000000	101.000000
2729.000000	101.200000
2730.000000	100.800000
2731.000000	100.000000
2732.000000	98.500000
2733.000000	99.100000
2734.000000	99.400000
2735.000000	100.400000
2736.000000	101.300000
2737.000000	101.000000
2738.000000	100.500000
2739.000000	99.800000
2740.000000	99.000000
2741.000000	100.100000
2742.000000	101.100000
2743.000000	101.700000
2744.000000	103.000000
2745.000000	102.200000
2746.000000	101.000000
2747.000000	100.400000
2748.000000	100.800000
2749.000000	101.300000
2750.000000	103.200000
2751.000000	104.600000
2752.000000	105.200000
2753.000000	104.600000
2754.000000	102.200000
2755.000000	101.000000
2756.000000	101.800000
2757.000000	103.200000
2758.000000	104.400000
2759.000000	105.200000
2760.000000	104.200000
2761.000000	102.100000
2762.000000	101.200000
2763.000000	100.700000
2764.000000	101.600000
2765.000000	103.000000
2766.000000	103.700000
2767.000000	103.500000
2768.000000	101.800000
2769.000000	99.400000
2770.000000	99.000000
2771.000000	100.000000
2772.000000	100.200000
2773.000000	101.100000
2774.000000	101.400000
2775.000000	100.300000
2776.000000	98.900000
2777.000000	97.700000
2778.000000	97.900000
2779.000000	99.400000
2780.000000	100.600000
2781.000000	100.800000
2782.000000	101.200000
2783.000000	100.000000
2784.000000	98.700000
2785.000000	98.900000
2786.000000	100.200000
2787.000000	101.000000
2788.000000	101.300000
2789.000000	101.400000
2790.000000	100.600000
2791.000000	99.600000
2792.000000	99.700000
2793.000000	101.000000
2794.000000	102.600000
2795.000000	103.700000
2796.000000	103.100000
2797.000000	103.000000
2798.000000	101.500000
2799.000000	100.400000
2800.000000	100.000000
2801.000000	100.600000
2802.000000	100.100000
2803.000000	100.400000
2804.000000	99.900000
2805.000000	98.500000
2806.000000	97.800000
2807.000000	97.500000
2808.000000	99.200000
2809.000000	100.200000
2810.000000	101.100000
2811.000000	100.700000
2812.000000	100.300000
2813.000000	99.100000
2814.000000	99.000000
2815.000000	99.700000
2816.000000	100.900000
2817.000000	101.500000
2818.000000	100.900000
2819.000000	100.300000
2820.000000	99.200000
2821.000000	99.500000
2822.000000	100.000000
2823.000000	101.100000
2824.000000	101.400000
2825.000000	101.600000
2826.000000	101.200000
2827.000000	100.200000
2828.000000	100.600000
2829.000000	101.000000
2830.000000	101.400000
2831.000000	102.100000
2832.000000	102.600000
2833.000000	101.000000
2834.000000	99.800000
2835.000000	99.000000
2836.000000	99.100000
2837.000000	100.200000
2838.000000	100.700000
2839.000000	101.000000
2840.000000	100.600000
2841.000000	99.000000
2842.000000	97.900000
2843.000000	98.900000
2844.000000	100.600000
2845.000000	101.500000
2846.000000	101.900000
2847.000000	101.900000
2848.000000	101.100000
2849.000000	100.300000
2850.000000	100.400000
2851.000000	101.500000
2852.000000	102.600000
2853.000000	102.900000
2854.000000	101.600000
2855.000000	100.400000
2856.000000	99.400000
2857.000000	99.000000
2858.000000	99.100000
2859.000000	99.800000
2860.000000	100.600000
2861.000000	99.900000
2862.000000	98.400000
2863.000000	97.500000
2864.000000	98.300000
2865.000000	100.300000
2866.000000	101.800000
2867.000000	102.400000
2868.000000	102.200000
2869.000000	101.000000
2870.000000	100.000000
2871.000000	100.800000
2872.000000	102.900000
2873.000000	104.000000
2874.000000	104.600000
2875.000000	103.900000
2876.000000	102.700000
2877.000000	102.100000
2878.000000	102.600000
2879.000000	104.400000
2880.000000	106.400000
2881.000000	106.900000
2882.000000	105.500000
2883.000000	103.900000
2884.000000	102.400000
2885.000000	101.600000
2886.000000	101.400000
2887.000000	101.900000
2888.000000	102.500000
2889.000000	101.600000
2890.000000	99.300000
2891.000000	97.700000
2892.000000	98.000000
2893.000000	99.200000
2894.000000	100.400000
2895.000000	101.500000
2896.000000	102.000000
2897.000000	100.800000
2898.000000	99.100000
2899.000000	98.600000
2900.000000	99.700000
2901.000000	101.300000
2902.000000	101.700000
2903.000000	101.200000
2904.000000	99.900000
2905.000000	99.300000
2906.000000	99.300000
2907.000000	100.100000
2908.000000	101.400000
2909.000000	102.700000
2910.000000	102.600000
2911.000000	101.300000
2912.000000	100.800000
2913.000000	101.300000
2914.000000	102.300000
2915.000000	103.400000
2916.000000	104.000000
2917.000000	103.700000
2918.000000	102.300000
2919.000000	100.300000
2920.000000	99.800000
2921.000000	100.400000
2922.000000	101.000000
2923.000000	101.200000
2924.000000	100.700000
2925.000000	98.600000
2926.000000	97.000000
2927.000000	97.600000
2928.000000	99.100000
2929.000000	101.000000
2930.000000	101.700000
2931.000000	101.100000
2932.000000	99.400000
2933.000000	98.600000
2934.000000	99.300000
2935.000000	100.500000
2936.000000	101.800000
2937.000000	101.700000
2938.000000	100.600000
2939.000000	99.600000
2940.000000	98.800000
2941.000000	99.000000
2942.000000	101.000000
2943.000000	102.700000
2944.000000	102.500000
2945.000000	101.600000
2946.000000	100.500000
2947.000000	99.600000
2948.000000	100.300000
2949.000000	101.100000
2950.000000	102.500000
2951.000000	102.500000
2952.000000	101.200000
2953.000000	99.500000
2954.000000	98.900000
2955.000000	99.900000
2956.000000	101.200000
2957.000000	102.100000
2958.000000	101.700000
2959.000000	100.600000
2960.000000	100.000000
2961.000000	100.000000
2962.000000	101.900000
2963.000000	103.100000
2964.000000	104.400000
2965.000000	103.900000
2966.000000	102.300000
2967.000000	102.100000
2968.000000	102.400000
2969.000000	102.600000
2970.000000	104.300000
2971.000000	105.000000
2972.000000	103.600000
2973.000000	101.900000
2974.000000	100.400000
2975.000000	100.600000
2976.000000	102.200000
2977.000000	103.100000
2978.000000	103.500000
2979.000000	103.900000
2980.000000	101.100000
2981.000000	100.400000
2982.000000	100.600000
2983.000000	101.300000
2984.000000	101.800000
2985.000000	102.400000
2986.000000	101.200000
2987.000000	99.500000
2988.000000	98.500000
2989.000000	98.600000
2990.000000	99.400000
2991.000000	99.900000
2992.000000	100.000000
2993.000000	99.000000
2994.000000	98.000000
2995.000000	96.700000
2996.000000	96.700000
2997.000000	97.800000
2998.000000	98.900000
2999.000000	98.400000
3000.000000	98.000000
