PE UV       SUBTECH     SPECTRUM    ASCII       PEDS        4.00        
   -1
INBUCR0434-4.Sample.ASC
24/02/09
15:47:05.00
24/02/09
15:47:05.00
Vinicio Soto Monge
Chrysina luteomarginata. Det: A. Solíz. COSTA RICA. Prov. Limón, R. B. Hitoy Cerere, Valle La Estrella, Calavera Danta, 370 m. 13 de OCT 2004, B. Gamboa, D. Briceño, M. Moraga, Y. Cárdenas. Tp Luz #78493. INB0003888481 Sin élitros. 
250,000000
1
Lambda 1050
1050L1511233
PerkinElmer UV WinLab 6.3.2.0749 / 2.02.05 Lambda 900 UV/VIS/NIR, Aug  7 2015 09:38:08

0
0
3350/servo 860,8/2
0
0
UV/VIS
1
1
1
DoubleDePol,CommonBeamDepol,RBeamAtt,SBeamAtt,60mm sphere, WB InGaAs Detector
0
0
0
0
Program
Program
3350/servo 860,8/2
3350/0,2 860,8/0,2
3350/0,2 860,8/0,2
0
15.00
 
 
 
0
 
860,8
319,2
860,8
Front
100
on
S:100 R:100
0
0
0
0
 
0
 
 
 
0
 
 
0
0
0
0
0
 
 
 
 
0
0


0
0
#HDR
-1
-1
#GR
nm
%R
1.0
0.0
2500,000000
-1,000000
2251
8
15,418800
1,411100
#DATA

250.000000	nan
251.000000	nan
252.000000	nan
253.000000	nan
254.000000	nan
255.000000	nan
256.000000	nan
257.000000	nan
258.000000	nan
259.000000	4.531419
260.000000	4.529215
261.000000	4.529653
262.000000	4.527779
263.000000	4.525604
264.000000	4.524410
265.000000	4.522319
266.000000	4.520561
267.000000	4.516964
268.000000	4.513390
269.000000	4.509289
270.000000	4.507948
271.000000	4.505515
272.000000	4.502314
273.000000	4.498631
274.000000	4.493954
275.000000	4.491871
276.000000	4.487212
277.000000	4.485728
278.000000	4.483011
279.000000	4.480288
280.000000	4.476204
281.000000	4.472042
282.000000	4.469810
283.000000	4.467450
284.000000	4.466670
285.000000	4.465111
286.000000	4.463979
287.000000	4.461284
288.000000	4.460557
289.000000	4.458674
290.000000	4.454525
291.000000	4.453417
292.000000	4.451048
293.000000	4.449187
294.000000	4.446861
295.000000	4.445580
296.000000	4.444769
297.000000	4.442931
298.000000	4.440601
299.000000	4.438662
300.000000	4.435735
301.000000	4.432976
302.000000	4.432927
303.000000	4.432122
304.000000	4.431411
305.000000	4.428045
306.000000	4.426703
307.000000	4.425412
308.000000	4.423969
309.000000	4.423649
310.000000	4.425777
311.000000	4.426251
312.000000	4.425042
313.000000	4.425176
314.000000	4.424509
315.000000	4.425476
316.000000	4.428787
317.000000	4.460342
318.000000	4.508551
319.000000	4.558704
320.000000	4.584544
321.000000	4.613803
322.000000	4.632972
323.000000	4.649091
324.000000	4.658779
325.000000	4.666680
326.000000	4.685139
327.000000	4.670233
328.000000	4.632420
329.000000	4.594703
330.000000	4.583058
331.000000	4.566181
332.000000	4.554227
333.000000	4.549656
334.000000	4.558246
335.000000	4.556871
336.000000	4.542886
337.000000	4.540968
338.000000	4.541089
339.000000	4.532546
340.000000	4.529352
341.000000	4.517617
342.000000	4.513868
343.000000	4.509373
344.000000	4.496533
345.000000	4.497533
346.000000	4.498324
347.000000	4.488886
348.000000	4.483416
349.000000	4.484856
350.000000	4.483870
351.000000	4.491592
352.000000	4.492327
353.000000	4.487010
354.000000	4.481054
355.000000	4.480731
356.000000	4.475726
357.000000	4.473401
358.000000	4.471362
359.000000	4.468834
360.000000	4.461648
361.000000	4.458672
362.000000	4.457413
363.000000	4.453779
364.000000	4.454365
365.000000	4.444822
366.000000	4.439365
367.000000	4.437223
368.000000	4.431980
369.000000	4.422865
370.000000	4.410830
371.000000	4.395395
372.000000	4.382434
373.000000	4.370114
374.000000	4.353234
375.000000	4.345211
376.000000	4.347725
377.000000	4.334173
378.000000	4.323591
379.000000	4.316807
380.000000	4.313293
381.000000	4.310600
382.000000	4.307720
383.000000	4.307848
384.000000	4.311238
385.000000	4.308287
386.000000	4.294612
387.000000	4.294558
388.000000	4.294381
389.000000	4.294344
390.000000	4.294127
391.000000	4.293693
392.000000	4.293276
393.000000	4.293186
394.000000	4.293304
395.000000	4.292788
396.000000	4.292269
397.000000	4.291979
398.000000	4.291585
399.000000	4.291143
400.000000	4.290835
401.000000	4.290585
402.000000	4.289841
403.000000	4.288932
404.000000	4.320474
405.000000	4.352617
406.000000	4.384820
407.000000	4.416926
408.000000	4.449088
409.000000	4.481234
410.000000	4.513325
411.000000	4.545560
412.000000	4.577553
413.000000	4.609652
414.000000	4.609530
415.000000	4.609323
416.000000	4.609054
417.000000	4.608466
418.000000	4.608239
419.000000	4.608540
420.000000	4.608956
421.000000	4.608997
422.000000	4.609599
423.000000	4.610284
424.000000	4.610614
425.000000	4.611183
426.000000	4.611787
427.000000	4.612671
428.000000	4.613404
429.000000	4.613980
430.000000	4.614426
431.000000	4.615201
432.000000	4.615983
433.000000	4.616811
434.000000	4.617960
435.000000	4.618941
436.000000	4.620022
437.000000	4.621225
438.000000	4.622753
439.000000	4.624172
440.000000	4.625389
441.000000	4.626741
442.000000	4.627962
443.000000	4.629269
444.000000	4.630577
445.000000	4.632046
446.000000	4.633648
447.000000	4.635250
448.000000	4.636840
449.000000	4.638377
450.000000	4.640251
451.000000	4.642169
452.000000	4.644142
453.000000	4.646359
454.000000	4.648571
455.000000	4.650581
456.000000	4.652509
457.000000	4.654596
458.000000	4.656690
459.000000	4.659102
460.000000	4.661434
461.000000	4.663481
462.000000	4.665812
463.000000	4.668172
464.000000	4.670498
465.000000	4.672879
466.000000	4.675352
467.000000	4.677766
468.000000	4.679929
469.000000	4.681861
470.000000	4.683831
471.000000	4.685903
472.000000	4.687615
473.000000	4.689054
474.000000	4.690410
475.000000	4.691783
476.000000	4.693119
477.000000	4.694318
478.000000	4.695345
479.000000	4.696101
480.000000	4.696665
481.000000	4.696748
482.000000	4.696697
483.000000	4.696718
484.000000	4.696861
485.000000	4.697367
486.000000	4.698242
487.000000	4.699435
488.000000	4.701060
489.000000	4.703213
490.000000	4.706152
491.000000	4.710136
492.000000	4.714930
493.000000	4.720059
494.000000	4.725333
495.000000	4.730822
496.000000	4.736253
497.000000	4.741713
498.000000	4.747352
499.000000	4.785471
500.000000	4.823538
501.000000	4.861318
502.000000	4.898942
503.000000	4.936598
504.000000	4.974016
505.000000	5.011276
506.000000	5.048582
507.000000	5.085721
508.000000	5.122597
509.000000	5.126974
510.000000	5.131013
511.000000	5.135004
512.000000	5.138572
513.000000	5.141934
514.000000	5.145334
515.000000	5.148406
516.000000	5.151062
517.000000	5.153400
518.000000	5.155448
519.000000	5.157172
520.000000	5.158642
521.000000	5.160045
522.000000	5.161647
523.000000	5.163255
524.000000	5.164697
525.000000	5.166243
526.000000	5.168036
527.000000	5.170298
528.000000	5.172849
529.000000	5.175635
530.000000	5.178536
531.000000	5.181697
532.000000	5.185230
533.000000	5.188911
534.000000	5.193091
535.000000	5.197602
536.000000	5.234706
537.000000	5.271785
538.000000	5.309128
539.000000	5.346684
540.000000	5.384764
541.000000	5.422828
542.000000	5.460903
543.000000	5.498916
544.000000	5.536993
545.000000	5.575090
546.000000	5.580854
547.000000	5.586642
548.000000	5.592535
549.000000	5.598358
550.000000	5.603863
551.000000	5.609563
552.000000	5.615157
553.000000	5.621068
554.000000	5.626778
555.000000	5.632482
556.000000	5.638337
557.000000	5.644264
558.000000	5.649923
559.000000	5.655632
560.000000	5.658285
561.000000	5.660278
562.000000	5.662427
563.000000	5.664176
564.000000	5.666231
565.000000	5.700594
566.000000	5.734963
567.000000	5.769337
568.000000	5.803930
569.000000	5.838415
570.000000	5.876313
571.000000	5.914491
572.000000	5.952493
573.000000	5.990943
574.000000	6.029361
575.000000	6.035483
576.000000	6.041329
577.000000	6.047241
578.000000	6.053285
579.000000	6.059650
580.000000	6.065881
581.000000	6.072239
582.000000	6.078968
583.000000	6.085527
584.000000	6.091961
585.000000	6.098555
586.000000	6.105217
587.000000	6.111928
588.000000	6.118551
589.000000	6.125161
590.000000	6.131809
591.000000	6.138874
592.000000	6.145299
593.000000	6.151951
594.000000	6.159026
595.000000	6.166179
596.000000	6.172985
597.000000	6.180003
598.000000	6.187101
599.000000	6.194365
600.000000	6.201771
601.000000	6.208916
602.000000	6.216617
603.000000	6.224035
604.000000	6.231487
605.000000	6.238558
606.000000	6.245916
607.000000	6.254031
608.000000	6.261841
609.000000	6.269307
610.000000	6.277071
611.000000	6.284660
612.000000	6.292276
613.000000	6.300048
614.000000	6.307794
615.000000	6.315413
616.000000	6.323605
617.000000	6.330794
618.000000	6.338662
619.000000	6.346433
620.000000	6.354101
621.000000	6.361947
622.000000	6.370099
623.000000	6.378639
624.000000	6.386694
625.000000	6.395107
626.000000	6.403349
627.000000	6.412094
628.000000	6.420838
629.000000	6.429799
630.000000	6.438878
631.000000	6.448358
632.000000	6.457521
633.000000	6.467133
634.000000	6.476916
635.000000	6.486699
636.000000	6.497069
637.000000	6.507152
638.000000	6.517101
639.000000	6.560048
640.000000	6.603049
641.000000	6.646334
642.000000	6.690177
643.000000	6.733717
644.000000	6.778085
645.000000	6.822698
646.000000	6.866762
647.000000	6.911351
648.000000	6.955912
649.000000	6.968137
650.000000	6.980641
651.000000	6.992941
652.000000	7.004839
653.000000	7.017304
654.000000	7.029264
655.000000	7.041786
656.000000	7.055065
657.000000	7.067934
658.000000	7.081375
659.000000	7.094888
660.000000	7.107945
661.000000	7.121569
662.000000	7.135686
663.000000	7.181665
664.000000	7.227921
665.000000	7.273958
666.000000	7.320136
667.000000	7.366457
668.000000	7.412721
669.000000	7.459321
670.000000	7.506385
671.000000	7.553026
672.000000	7.599741
673.000000	7.614779
674.000000	7.630037
675.000000	7.645530
676.000000	7.660656
677.000000	7.676717
678.000000	7.692619
679.000000	7.708335
680.000000	7.723937
681.000000	7.772291
682.000000	7.820712
683.000000	7.868904
684.000000	7.917223
685.000000	7.965834
686.000000	8.014189
687.000000	8.062105
688.000000	8.110451
689.000000	8.159067
690.000000	8.207581
691.000000	8.223543
692.000000	8.239393
693.000000	8.255297
694.000000	8.271142
695.000000	8.287069
696.000000	8.336194
697.000000	8.384059
698.000000	8.432021
699.000000	8.480033
700.000000	8.528501
701.000000	8.577476
702.000000	8.626360
703.000000	8.674644
704.000000	8.722723
705.000000	8.770633
706.000000	8.785608
707.000000	8.802619
708.000000	8.819125
709.000000	8.834804
710.000000	8.850564
711.000000	8.866428
712.000000	8.915332
713.000000	8.964382
714.000000	9.013792
715.000000	9.063152
716.000000	9.112934
717.000000	9.162283
718.000000	9.211553
719.000000	9.261062
720.000000	9.310268
721.000000	9.359154
722.000000	9.375895
723.000000	9.392974
724.000000	9.410387
725.000000	9.427965
726.000000	9.445029
727.000000	9.461721
728.000000	9.511411
729.000000	9.561412
730.000000	9.611363
731.000000	9.660921
732.000000	9.710786
733.000000	9.760950
734.000000	9.810723
735.000000	9.860476
736.000000	9.910124
737.000000	9.959859
738.000000	9.976947
739.000000	9.994545
740.000000	10.013321
741.000000	10.032703
742.000000	10.050183
743.000000	10.067335
744.000000	10.118000
745.000000	10.168022
746.000000	10.218975
747.000000	10.270513
748.000000	10.321416
749.000000	10.372479
750.000000	10.422873
751.000000	10.472853
752.000000	10.523791
753.000000	10.574734
754.000000	10.593266
755.000000	10.612505
756.000000	10.630559
757.000000	10.648371
758.000000	10.667231
759.000000	10.685673
760.000000	10.737053
761.000000	10.788623
762.000000	10.840469
763.000000	10.892880
764.000000	10.944576
765.000000	10.996591
766.000000	11.049013
767.000000	11.101518
768.000000	11.154457
769.000000	11.206571
770.000000	11.225643
771.000000	11.245004
772.000000	11.264999
773.000000	11.285224
774.000000	11.304184
775.000000	11.323192
776.000000	11.375933
777.000000	11.428245
778.000000	11.479996
779.000000	11.532669
780.000000	11.585500
781.000000	11.638090
782.000000	11.689867
783.000000	11.741779
784.000000	11.794827
785.000000	11.847383
786.000000	11.866299
787.000000	11.886123
788.000000	11.905986
789.000000	11.926476
790.000000	11.947642
791.000000	11.968566
792.000000	12.022646
793.000000	12.074758
794.000000	12.126785
795.000000	12.179986
796.000000	12.234077
797.000000	12.286938
798.000000	12.340529
799.000000	12.393242
800.000000	12.445016
801.000000	12.497087
802.000000	12.517685
803.000000	12.538261
804.000000	12.558797
805.000000	12.577917
806.000000	12.597783
807.000000	12.619344
808.000000	12.641312
809.000000	12.697130
810.000000	12.754980
811.000000	12.811751
812.000000	12.866752
813.000000	12.923413
814.000000	12.978968
815.000000	13.036675
816.000000	13.091152
817.000000	13.143833
818.000000	13.195315
819.000000	13.213549
820.000000	13.230220
821.000000	13.247087
822.000000	13.265268
823.000000	13.283604
824.000000	13.303021
825.000000	13.319397
826.000000	13.336706
827.000000	13.355038
828.000000	13.403602
829.000000	13.451665
830.000000	13.500736
831.000000	13.548417
832.000000	13.595499
833.000000	13.641731
834.000000	13.685497
835.000000	13.731882
836.000000	13.778390
837.000000	13.822693
838.000000	13.839181
839.000000	13.854461
840.000000	13.869401
841.000000	13.886661
842.000000	13.898578
843.000000	13.911052
844.000000	13.927413
845.000000	13.940068
846.000000	13.942789
847.000000	13.947689
848.000000	13.950801
849.000000	13.983506
850.000000	14.020816
851.000000	14.018663
852.000000	14.053940
853.000000	14.088467
854.000000	14.115280
855.000000	14.143024
856.000000	14.174987
857.000000	14.234909
858.000000	14.641074
859.000000	14.678500
860.000000	14.736038
861.000000	14.832912
862.000000	14.898492
863.000000	14.940683
864.000000	15.013930
865.000000	15.089815
866.000000	15.172303
867.000000	15.200267
868.000000	14.880375
869.000000	14.901503
870.000000	14.870722
871.000000	14.864247
872.000000	14.855532
873.000000	14.845283
874.000000	14.809567
875.000000	14.771585
876.000000	14.733750
877.000000	14.720147
878.000000	14.731635
879.000000	14.716945
880.000000	14.727535
881.000000	14.713180
882.000000	14.724455
883.000000	14.735210
884.000000	14.745133
885.000000	14.731078
886.000000	14.716020
887.000000	14.702208
888.000000	14.662463
889.000000	14.647737
890.000000	14.633355
891.000000	14.618918
892.000000	14.580228
893.000000	14.566120
894.000000	14.551650
895.000000	14.562420
896.000000	14.573465
897.000000	14.584955
898.000000	14.597410
899.000000	14.609615
900.000000	14.621465
901.000000	14.633377
902.000000	14.619765
903.000000	14.631367
904.000000	14.621160
905.000000	14.611155
906.000000	14.600903
907.000000	14.589220
908.000000	14.579120
909.000000	14.568820
910.000000	14.558630
911.000000	14.549135
912.000000	14.565648
913.000000	14.557393
914.000000	14.573190
915.000000	14.587533
916.000000	14.602720
917.000000	14.620060
918.000000	14.636152
919.000000	14.652655
920.000000	14.670440
921.000000	14.689042
922.000000	14.705295
923.000000	14.722830
924.000000	14.739308
925.000000	14.757022
926.000000	14.773782
927.000000	14.789652
928.000000	14.805218
929.000000	14.821318
930.000000	14.836087
931.000000	14.849335
932.000000	14.864650
933.000000	14.879435
934.000000	14.894768
935.000000	14.910080
936.000000	14.925198
937.000000	14.940295
938.000000	14.955443
939.000000	14.969515
940.000000	14.984140
941.000000	14.998408
942.000000	15.010950
943.000000	15.022088
944.000000	15.033940
945.000000	15.046212
946.000000	15.058890
947.000000	15.071078
948.000000	15.082565
949.000000	15.095045
950.000000	15.107120
951.000000	15.118707
952.000000	15.130982
953.000000	15.144692
954.000000	15.155767
955.000000	15.166663
956.000000	15.177547
957.000000	15.189003
958.000000	15.201925
959.000000	15.212953
960.000000	15.223545
961.000000	15.234863
962.000000	15.270580
963.000000	15.304773
964.000000	15.341140
965.000000	15.375662
966.000000	15.409682
967.000000	15.443612
968.000000	15.476170
969.000000	15.509683
970.000000	15.543340
971.000000	15.576878
972.000000	15.585782
973.000000	15.594435
974.000000	15.601972
975.000000	15.610165
976.000000	15.619515
977.000000	15.628573
978.000000	15.637047
979.000000	15.644940
980.000000	15.652677
981.000000	15.660595
982.000000	15.668158
983.000000	15.676773
984.000000	15.685447
985.000000	15.693388
986.000000	15.700380
987.000000	15.707370
988.000000	15.715280
989.000000	15.722902
990.000000	15.730635
991.000000	15.738507
992.000000	15.746397
993.000000	15.754313
994.000000	15.762155
995.000000	15.770022
996.000000	15.777877
997.000000	15.785410
998.000000	15.792777
999.000000	15.800595
1000.000000	15.808112
1001.000000	15.815590
1002.000000	15.822890
1003.000000	15.829607
1004.000000	15.836455
1005.000000	15.843318
1006.000000	15.849695
1007.000000	15.855795
1008.000000	15.861878
1009.000000	15.868270
1010.000000	15.874920
1011.000000	15.880800
1012.000000	15.886105
1013.000000	15.891660
1014.000000	15.897302
1015.000000	15.902883
1016.000000	15.907867
1017.000000	15.913108
1018.000000	15.919210
1019.000000	15.925642
1020.000000	15.956413
1021.000000	15.987290
1022.000000	16.019692
1023.000000	16.052340
1024.000000	16.084350
1025.000000	16.116300
1026.000000	16.149252
1027.000000	16.182805
1028.000000	16.216023
1029.000000	16.248800
1030.000000	16.257202
1031.000000	16.266310
1032.000000	16.274560
1033.000000	16.282615
1034.000000	16.291272
1035.000000	16.300440
1036.000000	16.309615
1037.000000	16.318207
1038.000000	16.326702
1039.000000	16.335630
1040.000000	16.344640
1041.000000	16.353190
1042.000000	16.361877
1043.000000	16.370745
1044.000000	16.379290
1045.000000	16.387633
1046.000000	16.396300
1047.000000	16.404823
1048.000000	16.413560
1049.000000	16.422445
1050.000000	16.431208
1051.000000	16.440262
1052.000000	16.449235
1053.000000	16.457977
1054.000000	16.466790
1055.000000	16.476273
1056.000000	16.485467
1057.000000	16.495125
1058.000000	16.530237
1059.000000	16.564722
1060.000000	16.599448
1061.000000	16.634625
1062.000000	16.669472
1063.000000	16.703972
1064.000000	16.738437
1065.000000	16.772655
1066.000000	16.807727
1067.000000	16.842347
1068.000000	16.852162
1069.000000	16.863015
1070.000000	16.873225
1071.000000	16.882560
1072.000000	16.891803
1073.000000	16.901747
1074.000000	16.912308
1075.000000	16.922702
1076.000000	16.933197
1077.000000	16.943913
1078.000000	16.953505
1079.000000	16.962097
1080.000000	16.971637
1081.000000	16.981570
1082.000000	16.992245
1083.000000	17.002845
1084.000000	17.012265
1085.000000	17.021757
1086.000000	17.030153
1087.000000	17.039202
1088.000000	17.047945
1089.000000	17.057150
1090.000000	17.065780
1091.000000	17.073678
1092.000000	17.080942
1093.000000	17.087865
1094.000000	17.095840
1095.000000	17.103777
1096.000000	17.136825
1097.000000	17.168433
1098.000000	17.200440
1099.000000	17.231950
1100.000000	17.263257
1101.000000	17.295130
1102.000000	17.326945
1103.000000	17.358740
1104.000000	17.390422
1105.000000	17.422238
1106.000000	17.427478
1107.000000	17.432837
1108.000000	17.438422
1109.000000	17.443660
1110.000000	17.448793
1111.000000	17.453772
1112.000000	17.457422
1113.000000	17.461132
1114.000000	17.465553
1115.000000	17.468293
1116.000000	17.471967
1117.000000	17.475685
1118.000000	17.479077
1119.000000	17.483145
1120.000000	17.485640
1121.000000	17.488653
1122.000000	17.492870
1123.000000	17.496050
1124.000000	17.496930
1125.000000	17.498460
1126.000000	17.499488
1127.000000	17.499435
1128.000000	17.497925
1129.000000	17.494827
1130.000000	17.490713
1131.000000	17.482513
1132.000000	17.472240
1133.000000	17.461688
1134.000000	17.452807
1135.000000	17.418682
1136.000000	17.383085
1137.000000	17.345580
1138.000000	17.305843
1139.000000	17.264862
1140.000000	17.225350
1141.000000	17.187312
1142.000000	17.149917
1143.000000	17.112078
1144.000000	17.072690
1145.000000	17.058160
1146.000000	17.043440
1147.000000	17.031840
1148.000000	17.020917
1149.000000	17.010720
1150.000000	17.000140
1151.000000	16.991217
1152.000000	16.980817
1153.000000	16.970820
1154.000000	16.959912
1155.000000	16.947870
1156.000000	16.935220
1157.000000	16.894183
1158.000000	16.852252
1159.000000	16.809860
1160.000000	16.767200
1161.000000	16.720638
1162.000000	16.673553
1163.000000	16.624212
1164.000000	16.573363
1165.000000	16.521583
1166.000000	16.469573
1167.000000	16.441765
1168.000000	16.415890
1169.000000	16.388965
1170.000000	16.360967
1171.000000	16.334815
1172.000000	16.309977
1173.000000	16.262702
1174.000000	16.216930
1175.000000	16.171865
1176.000000	16.128400
1177.000000	16.085732
1178.000000	16.044497
1179.000000	16.005065
1180.000000	15.967318
1181.000000	15.929730
1182.000000	15.893187
1183.000000	15.881072
1184.000000	15.870067
1185.000000	15.859685
1186.000000	15.852050
1187.000000	15.849088
1188.000000	15.845315
1189.000000	15.842515
1190.000000	15.841722
1191.000000	15.843417
1192.000000	15.847737
1193.000000	15.855723
1194.000000	15.864867
1195.000000	15.902247
1196.000000	15.938352
1197.000000	15.975410
1198.000000	16.013435
1199.000000	16.053515
1200.000000	16.094177
1201.000000	16.135040
1202.000000	16.174088
1203.000000	16.213023
1204.000000	16.252637
1205.000000	16.267555
1206.000000	16.284533
1207.000000	16.299568
1208.000000	16.315867
1209.000000	16.332902
1210.000000	16.349660
1211.000000	16.366633
1212.000000	16.385080
1213.000000	16.402580
1214.000000	16.420385
1215.000000	16.437368
1216.000000	16.454555
1217.000000	16.472570
1218.000000	16.514985
1219.000000	16.555280
1220.000000	16.595650
1221.000000	16.636245
1222.000000	16.676620
1223.000000	16.715520
1224.000000	16.752660
1225.000000	16.789307
1226.000000	16.824565
1227.000000	16.859435
1228.000000	16.868390
1229.000000	16.877500
1230.000000	16.886275
1231.000000	16.894565
1232.000000	16.901305
1233.000000	16.908012
1234.000000	16.915107
1235.000000	16.921623
1236.000000	16.928195
1237.000000	16.934103
1238.000000	16.940105
1239.000000	16.945515
1240.000000	16.949890
1241.000000	16.954058
1242.000000	16.958983
1243.000000	16.964768
1244.000000	16.971402
1245.000000	16.978817
1246.000000	16.986895
1247.000000	16.996108
1248.000000	17.006210
1249.000000	17.016303
1250.000000	17.026243
1251.000000	17.061980
1252.000000	17.098352
1253.000000	17.134620
1254.000000	17.170560
1255.000000	17.205965
1256.000000	17.240570
1257.000000	17.274005
1258.000000	17.307082
1259.000000	17.340435
1260.000000	17.374070
1261.000000	17.381328
1262.000000	17.387403
1263.000000	17.392553
1264.000000	17.397048
1265.000000	17.400200
1266.000000	17.401473
1267.000000	17.402313
1268.000000	17.402127
1269.000000	17.400610
1270.000000	17.398915
1271.000000	17.397295
1272.000000	17.395788
1273.000000	17.394480
1274.000000	17.392775
1275.000000	17.391610
1276.000000	17.390755
1277.000000	17.389785
1278.000000	17.389837
1279.000000	17.390585
1280.000000	17.391872
1281.000000	17.393307
1282.000000	17.395255
1283.000000	17.398157
1284.000000	17.401635
1285.000000	17.405335
1286.000000	17.409382
1287.000000	17.413897
1288.000000	17.418448
1289.000000	17.423903
1290.000000	17.428955
1291.000000	17.434065
1292.000000	17.438947
1293.000000	17.443468
1294.000000	17.448280
1295.000000	17.453363
1296.000000	17.459238
1297.000000	17.464660
1298.000000	17.468860
1299.000000	17.472673
1300.000000	17.476445
1301.000000	17.479118
1302.000000	17.481115
1303.000000	17.482605
1304.000000	17.483738
1305.000000	17.484475
1306.000000	17.484658
1307.000000	17.484878
1308.000000	17.485103
1309.000000	17.484793
1310.000000	17.483418
1311.000000	17.481592
1312.000000	17.479560
1313.000000	17.476333
1314.000000	17.471680
1315.000000	17.466477
1316.000000	17.460062
1317.000000	17.453280
1318.000000	17.446327
1319.000000	17.438647
1320.000000	17.430850
1321.000000	17.423053
1322.000000	17.414950
1323.000000	17.405947
1324.000000	17.396830
1325.000000	17.387062
1326.000000	17.377330
1327.000000	17.366927
1328.000000	17.355578
1329.000000	17.318500
1330.000000	17.280355
1331.000000	17.241695
1332.000000	17.202282
1333.000000	17.162923
1334.000000	17.122562
1335.000000	17.081743
1336.000000	17.040112
1337.000000	16.996923
1338.000000	16.953840
1339.000000	16.934752
1340.000000	16.914553
1341.000000	16.893190
1342.000000	16.871050
1343.000000	16.847613
1344.000000	16.797220
1345.000000	16.744962
1346.000000	16.691722
1347.000000	16.638935
1348.000000	16.584245
1349.000000	16.527950
1350.000000	16.471332
1351.000000	16.413140
1352.000000	16.353478
1353.000000	16.294335
1354.000000	16.263235
1355.000000	16.234057
1356.000000	16.204853
1357.000000	16.149377
1358.000000	16.093755
1359.000000	16.036872
1360.000000	15.983033
1361.000000	15.938235
1362.000000	15.894065
1363.000000	15.847575
1364.000000	15.776170
1365.000000	15.702778
1366.000000	15.626550
1367.000000	15.576947
1368.000000	15.526932
1369.000000	15.476980
1370.000000	15.397705
1371.000000	15.310060
1372.000000	15.218615
1373.000000	15.123515
1374.000000	15.045830
1375.000000	14.939835
1376.000000	14.830512
1377.000000	14.714532
1378.000000	14.591528
1379.000000	14.467302
1380.000000	14.342333
1381.000000	14.221027
1382.000000	14.104795
1383.000000	13.996095
1384.000000	13.890740
1385.000000	13.813580
1386.000000	13.742040
1387.000000	13.655062
1388.000000	13.578590
1389.000000	13.503680
1390.000000	13.455080
1391.000000	13.405670
1392.000000	13.357418
1393.000000	13.307170
1394.000000	13.260865
1395.000000	13.222845
1396.000000	13.187190
1397.000000	13.166995
1398.000000	13.141468
1399.000000	13.095840
1400.000000	13.058275
1401.000000	13.017090
1402.000000	12.968563
1403.000000	12.916510
1404.000000	12.864330
1405.000000	12.804015
1406.000000	12.740552
1407.000000	12.681338
1408.000000	12.599985
1409.000000	12.541287
1410.000000	12.472772
1411.000000	12.401228
1412.000000	12.333603
1413.000000	12.269810
1414.000000	12.206297
1415.000000	12.141130
1416.000000	12.047727
1417.000000	11.955272
1418.000000	11.889748
1419.000000	11.823995
1420.000000	11.759265
1421.000000	11.697900
1422.000000	11.638205
1423.000000	11.578465
1424.000000	11.517145
1425.000000	11.457272
1426.000000	11.401257
1427.000000	11.347250
1428.000000	11.292955
1429.000000	11.237918
1430.000000	11.185402
1431.000000	11.135642
1432.000000	11.086375
1433.000000	11.038332
1434.000000	10.990645
1435.000000	10.943862
1436.000000	10.924398
1437.000000	10.905995
1438.000000	10.886740
1439.000000	10.869090
1440.000000	10.827505
1441.000000	10.785660
1442.000000	10.743910
1443.000000	10.701835
1444.000000	10.661192
1445.000000	10.622915
1446.000000	10.585620
1447.000000	10.544855
1448.000000	10.504993
1449.000000	10.466245
1450.000000	10.453202
1451.000000	10.441118
1452.000000	10.428280
1453.000000	10.416272
1454.000000	10.403660
1455.000000	10.390432
1456.000000	10.376432
1457.000000	10.364577
1458.000000	10.351735
1459.000000	10.337805
1460.000000	10.323815
1461.000000	10.284522
1462.000000	10.245835
1463.000000	10.206902
1464.000000	10.168840
1465.000000	10.131235
1466.000000	10.092490
1467.000000	10.054685
1468.000000	10.016893
1469.000000	9.980080
1470.000000	9.944057
1471.000000	9.933080
1472.000000	9.922352
1473.000000	9.911680
1474.000000	9.900555
1475.000000	9.888127
1476.000000	9.876785
1477.000000	9.865320
1478.000000	9.854918
1479.000000	9.843912
1480.000000	9.832372
1481.000000	9.819907
1482.000000	9.808065
1483.000000	9.796138
1484.000000	9.782813
1485.000000	9.770278
1486.000000	9.757233
1487.000000	9.744305
1488.000000	9.730638
1489.000000	9.717160
1490.000000	9.702470
1491.000000	9.663467
1492.000000	9.624147
1493.000000	9.585548
1494.000000	9.549042
1495.000000	9.511975
1496.000000	9.476445
1497.000000	9.440765
1498.000000	9.406335
1499.000000	9.373382
1500.000000	9.342330
1501.000000	9.337975
1502.000000	9.335422
1503.000000	9.334090
1504.000000	9.332638
1505.000000	9.333668
1506.000000	9.334957
1507.000000	9.362655
1508.000000	9.392295
1509.000000	9.422232
1510.000000	9.452472
1511.000000	9.482770
1512.000000	9.513825
1513.000000	9.544882
1514.000000	9.577345
1515.000000	9.609605
1516.000000	9.641927
1517.000000	9.649852
1518.000000	9.657777
1519.000000	9.666107
1520.000000	9.674173
1521.000000	9.681883
1522.000000	9.690435
1523.000000	9.700105
1524.000000	9.709752
1525.000000	9.719212
1526.000000	9.729320
1527.000000	9.738655
1528.000000	9.748240
1529.000000	9.758695
1530.000000	9.769405
1531.000000	9.780855
1532.000000	9.791462
1533.000000	9.801055
1534.000000	9.810990
1535.000000	9.821953
1536.000000	9.857917
1537.000000	9.894095
1538.000000	9.929800
1539.000000	9.965365
1540.000000	10.001400
1541.000000	10.037073
1542.000000	10.072553
1543.000000	10.108870
1544.000000	10.144183
1545.000000	10.179190
1546.000000	10.189920
1547.000000	10.201130
1548.000000	10.212125
1549.000000	10.222883
1550.000000	10.233963
1551.000000	10.245498
1552.000000	10.257775
1553.000000	10.269195
1554.000000	10.280527
1555.000000	10.291483
1556.000000	10.302395
1557.000000	10.313140
1558.000000	10.322973
1559.000000	10.331692
1560.000000	10.339045
1561.000000	10.345665
1562.000000	10.351272
1563.000000	10.356300
1564.000000	10.361572
1565.000000	10.366620
1566.000000	10.369485
1567.000000	10.371058
1568.000000	10.373595
1569.000000	10.376440
1570.000000	10.379078
1571.000000	10.381255
1572.000000	10.383620
1573.000000	10.386427
1574.000000	10.389150
1575.000000	10.391715
1576.000000	10.395172
1577.000000	10.399492
1578.000000	10.429015
1579.000000	10.459177
1580.000000	10.490172
1581.000000	10.521957
1582.000000	10.553715
1583.000000	10.585795
1584.000000	10.618658
1585.000000	10.651735
1586.000000	10.685370
1587.000000	10.719580
1588.000000	10.728458
1589.000000	10.737073
1590.000000	10.746305
1591.000000	10.755698
1592.000000	10.765213
1593.000000	10.774660
1594.000000	10.784693
1595.000000	10.795627
1596.000000	10.806330
1597.000000	10.816942
1598.000000	10.828123
1599.000000	10.839448
1600.000000	10.850785
1601.000000	10.862595
1602.000000	10.874460
1603.000000	10.886630
1604.000000	10.898397
1605.000000	10.910035
1606.000000	10.947188
1607.000000	10.984290
1608.000000	11.021595
1609.000000	11.058990
1610.000000	11.095392
1611.000000	11.131713
1612.000000	11.168382
1613.000000	11.203532
1614.000000	11.238685
1615.000000	11.273647
1616.000000	11.283888
1617.000000	11.293992
1618.000000	11.303368
1619.000000	11.312423
1620.000000	11.321555
1621.000000	11.331053
1622.000000	11.339707
1623.000000	11.349130
1624.000000	11.358460
1625.000000	11.367455
1626.000000	11.375530
1627.000000	11.383968
1628.000000	11.392258
1629.000000	11.400428
1630.000000	11.408975
1631.000000	11.416303
1632.000000	11.423808
1633.000000	11.431560
1634.000000	11.439177
1635.000000	11.446568
1636.000000	11.454110
1637.000000	11.460312
1638.000000	11.466427
1639.000000	11.471757
1640.000000	11.502163
1641.000000	11.533075
1642.000000	11.563145
1643.000000	11.592665
1644.000000	11.622113
1645.000000	11.650192
1646.000000	11.678070
1647.000000	11.706693
1648.000000	11.734607
1649.000000	11.762590
1650.000000	11.764893
1651.000000	11.740670
1652.000000	11.716308
1653.000000	11.691247
1654.000000	11.664273
1655.000000	11.637837
1656.000000	11.609348
1657.000000	11.579875
1658.000000	11.549473
1659.000000	11.516385
1660.000000	11.481810
1661.000000	11.470330
1662.000000	11.457777
1663.000000	11.443062
1664.000000	11.426937
1665.000000	11.408690
1666.000000	11.388685
1667.000000	11.366650
1668.000000	11.339295
1669.000000	11.285653
1670.000000	11.230165
1671.000000	11.174125
1672.000000	11.115380
1673.000000	11.055088
1674.000000	10.994445
1675.000000	10.932105
1676.000000	10.868950
1677.000000	10.805607
1678.000000	10.719705
1679.000000	10.658900
1680.000000	10.595815
1681.000000	10.532020
1682.000000	10.469188
1683.000000	10.407237
1684.000000	10.343853
1685.000000	10.282675
1686.000000	10.223765
1687.000000	10.165230
1688.000000	10.135063
1689.000000	10.108512
1690.000000	10.087832
1691.000000	10.071055
1692.000000	10.057650
1693.000000	10.048362
1694.000000	10.043000
1695.000000	10.040187
1696.000000	10.039443
1697.000000	10.040482
1698.000000	10.042663
1699.000000	10.045235
1700.000000	10.046100
1701.000000	10.047062
1702.000000	10.048245
1703.000000	10.048533
1704.000000	10.023233
1705.000000	9.996823
1706.000000	9.970365
1707.000000	9.943342
1708.000000	9.914595
1709.000000	9.884680
1710.000000	9.854620
1711.000000	9.823202
1712.000000	9.788502
1713.000000	9.751592
1714.000000	9.737850
1715.000000	9.721082
1716.000000	9.701998
1717.000000	9.681195
1718.000000	9.657855
1719.000000	9.633513
1720.000000	9.608577
1721.000000	9.582165
1722.000000	9.556460
1723.000000	9.507845
1724.000000	9.460742
1725.000000	9.416042
1726.000000	9.373247
1727.000000	9.332785
1728.000000	9.294948
1729.000000	9.260375
1730.000000	9.227947
1731.000000	9.198720
1732.000000	9.172875
1733.000000	9.172670
1734.000000	9.173777
1735.000000	9.176530
1736.000000	9.205440
1737.000000	9.236675
1738.000000	9.269795
1739.000000	9.303210
1740.000000	9.337230
1741.000000	9.372668
1742.000000	9.407800
1743.000000	9.444838
1744.000000	9.481888
1745.000000	9.519725
1746.000000	9.533483
1747.000000	9.547038
1748.000000	9.561203
1749.000000	9.575022
1750.000000	9.589593
1751.000000	9.603550
1752.000000	9.617398
1753.000000	9.629803
1754.000000	9.642663
1755.000000	9.654417
1756.000000	9.665162
1757.000000	9.675562
1758.000000	9.685393
1759.000000	9.694340
1760.000000	9.702298
1761.000000	9.709310
1762.000000	9.716785
1763.000000	9.724330
1764.000000	9.732245
1765.000000	9.740543
1766.000000	9.774437
1767.000000	9.808412
1768.000000	9.842002
1769.000000	9.876155
1770.000000	9.910833
1771.000000	9.946130
1772.000000	9.980493
1773.000000	10.014150
1774.000000	10.047487
1775.000000	10.080930
1776.000000	10.089033
1777.000000	10.096465
1778.000000	10.103625
1779.000000	10.110558
1780.000000	10.117052
1781.000000	10.122162
1782.000000	10.126985
1783.000000	10.131405
1784.000000	10.135265
1785.000000	10.138848
1786.000000	10.141573
1787.000000	10.143327
1788.000000	10.144882
1789.000000	10.145250
1790.000000	10.144470
1791.000000	10.144362
1792.000000	10.143855
1793.000000	10.143360
1794.000000	10.143080
1795.000000	10.142555
1796.000000	10.141868
1797.000000	10.141320
1798.000000	10.139555
1799.000000	10.138340
1800.000000	10.139283
1801.000000	10.140345
1802.000000	10.142230
1803.000000	10.143722
1804.000000	10.144272
1805.000000	10.146097
1806.000000	10.149315
1807.000000	10.152207
1808.000000	10.154545
1809.000000	10.156285
1810.000000	10.157538
1811.000000	10.159775
1812.000000	10.162108
1813.000000	10.164345
1814.000000	10.167132
1815.000000	10.169853
1816.000000	10.170640
1817.000000	10.168497
1818.000000	10.165820
1819.000000	10.166097
1820.000000	10.170922
1821.000000	10.178508
1822.000000	10.184165
1823.000000	10.185040
1824.000000	10.182920
1825.000000	10.179040
1826.000000	10.177785
1827.000000	10.181808
1828.000000	10.213510
1829.000000	10.244485
1830.000000	10.272633
1831.000000	10.295910
1832.000000	10.316962
1833.000000	10.340005
1834.000000	10.365570
1835.000000	10.393492
1836.000000	10.422977
1837.000000	10.452713
1838.000000	10.456985
1839.000000	10.461050
1840.000000	10.465785
1841.000000	10.476263
1842.000000	10.491045
1843.000000	10.503515
1844.000000	10.508357
1845.000000	10.506195
1846.000000	10.504193
1847.000000	10.509530
1848.000000	10.521580
1849.000000	10.531190
1850.000000	10.531372
1851.000000	10.521780
1852.000000	10.511215
1853.000000	10.508168
1854.000000	10.514542
1855.000000	10.524863
1856.000000	10.527692
1857.000000	10.519288
1858.000000	10.506480
1859.000000	10.496842
1860.000000	10.493845
1861.000000	10.494043
1862.000000	10.491083
1863.000000	10.480430
1864.000000	10.463598
1865.000000	10.418355
1866.000000	10.373100
1867.000000	10.326195
1868.000000	10.274888
1869.000000	10.223073
1870.000000	10.173075
1871.000000	10.125243
1872.000000	10.081420
1873.000000	10.043102
1874.000000	10.006470
1875.000000	9.972442
1876.000000	9.938345
1877.000000	9.902470
1878.000000	9.864190
1879.000000	9.818130
1880.000000	9.761983
1881.000000	9.699445
1882.000000	9.607162
1883.000000	9.511520
1884.000000	9.414965
1885.000000	9.340118
1886.000000	9.261745
1887.000000	9.155413
1888.000000	9.045440
1889.000000	8.935062
1890.000000	8.827972
1891.000000	8.721253
1892.000000	8.638358
1893.000000	8.527513
1894.000000	8.412787
1895.000000	8.293122
1896.000000	8.172352
1897.000000	8.078470
1898.000000	7.962395
1899.000000	7.849645
1900.000000	7.735530
1901.000000	7.620905
1902.000000	7.480593
1903.000000	7.366240
1904.000000	7.256942
1905.000000	7.156118
1906.000000	7.060695
1907.000000	6.966173
1908.000000	6.871780
1909.000000	6.774130
1910.000000	6.677565
1911.000000	6.583870
1912.000000	6.520047
1913.000000	6.461303
1914.000000	6.403367
1915.000000	6.343430
1916.000000	6.257567
1917.000000	6.173420
1918.000000	6.116565
1919.000000	6.064795
1920.000000	6.017555
1921.000000	5.972240
1922.000000	5.927380
1923.000000	5.881115
1924.000000	5.833850
1925.000000	5.787902
1926.000000	5.771320
1927.000000	5.758130
1928.000000	5.747295
1929.000000	5.736908
1930.000000	5.725433
1931.000000	5.714200
1932.000000	5.702422
1933.000000	5.691383
1934.000000	5.683082
1935.000000	5.675790
1936.000000	5.667685
1937.000000	5.635438
1938.000000	5.604215
1939.000000	5.600090
1940.000000	5.596938
1941.000000	5.593147
1942.000000	5.591710
1943.000000	5.591412
1944.000000	5.565460
1945.000000	5.540593
1946.000000	5.542070
1947.000000	5.543145
1948.000000	5.569673
1949.000000	5.568817
1950.000000	5.569335
1951.000000	5.570593
1952.000000	5.572360
1953.000000	5.574170
1954.000000	5.602707
1955.000000	5.631407
1956.000000	5.634055
1957.000000	5.661435
1958.000000	5.663785
1959.000000	5.667705
1960.000000	5.670577
1961.000000	5.674075
1962.000000	5.677070
1963.000000	5.681717
1964.000000	5.684135
1965.000000	5.687433
1966.000000	5.690970
1967.000000	5.694865
1968.000000	5.697377
1969.000000	5.700057
1970.000000	5.703968
1971.000000	5.707693
1972.000000	5.710950
1973.000000	5.714130
1974.000000	5.718510
1975.000000	5.721513
1976.000000	5.723925
1977.000000	5.726350
1978.000000	5.730700
1979.000000	5.733682
1980.000000	5.735425
1981.000000	5.739467
1982.000000	5.743023
1983.000000	5.745183
1984.000000	5.749258
1985.000000	5.752825
1986.000000	5.758260
1987.000000	5.788590
1988.000000	5.817735
1989.000000	5.847955
1990.000000	5.878827
1991.000000	5.907877
1992.000000	5.937298
1993.000000	5.966795
1994.000000	5.995690
1995.000000	6.026705
1996.000000	6.056185
1997.000000	6.060380
1998.000000	6.064482
1999.000000	6.069542
2000.000000	6.073815
2001.000000	6.078725
2002.000000	6.082285
2003.000000	6.086265
2004.000000	6.090018
2005.000000	6.093328
2006.000000	6.096813
2007.000000	6.100620
2008.000000	6.104975
2009.000000	6.106810
2010.000000	6.108763
2011.000000	6.110653
2012.000000	6.113095
2013.000000	6.114578
2014.000000	6.115298
2015.000000	6.115500
2016.000000	6.115505
2017.000000	6.115093
2018.000000	6.113820
2019.000000	6.112912
2020.000000	6.111012
2021.000000	6.108243
2022.000000	6.105705
2023.000000	6.102157
2024.000000	6.098062
2025.000000	6.092810
2026.000000	6.087000
2027.000000	6.080510
2028.000000	6.072703
2029.000000	6.065577
2030.000000	6.058183
2031.000000	6.050013
2032.000000	6.041178
2033.000000	6.033197
2034.000000	6.024662
2035.000000	6.015455
2036.000000	6.006237
2037.000000	5.997668
2038.000000	5.989707
2039.000000	5.981618
2040.000000	5.973365
2041.000000	5.964652
2042.000000	5.955862
2043.000000	5.946045
2044.000000	5.936888
2045.000000	5.929102
2046.000000	5.921700
2047.000000	5.913358
2048.000000	5.905525
2049.000000	5.897495
2050.000000	5.890433
2051.000000	5.884910
2052.000000	5.880117
2053.000000	5.877182
2054.000000	5.874840
2055.000000	5.872752
2056.000000	5.871933
2057.000000	5.872270
2058.000000	5.872625
2059.000000	5.874587
2060.000000	5.877665
2061.000000	5.880607
2062.000000	5.884375
2063.000000	5.889070
2064.000000	5.893993
2065.000000	5.899927
2066.000000	5.906627
2067.000000	5.913457
2068.000000	5.921178
2069.000000	5.929208
2070.000000	5.937325
2071.000000	5.945840
2072.000000	5.953825
2073.000000	5.961068
2074.000000	5.968925
2075.000000	5.976398
2076.000000	5.982742
2077.000000	6.014205
2078.000000	6.045452
2079.000000	6.075860
2080.000000	6.106060
2081.000000	6.136585
2082.000000	6.167225
2083.000000	6.197652
2084.000000	6.227247
2085.000000	6.255940
2086.000000	6.284408
2087.000000	6.288278
2088.000000	6.291750
2089.000000	6.293988
2090.000000	6.295362
2091.000000	6.296218
2092.000000	6.296565
2093.000000	6.296805
2094.000000	6.296350
2095.000000	6.295753
2096.000000	6.295325
2097.000000	6.294255
2098.000000	6.292867
2099.000000	6.292338
2100.000000	6.292042
2101.000000	6.291428
2102.000000	6.290968
2103.000000	6.290583
2104.000000	6.290393
2105.000000	6.289618
2106.000000	6.287612
2107.000000	6.285602
2108.000000	6.283828
2109.000000	6.306312
2110.000000	6.304078
2111.000000	6.301328
2112.000000	6.322692
2113.000000	6.343462
2114.000000	6.339380
2115.000000	6.361300
2116.000000	6.358248
2117.000000	6.355018
2118.000000	6.377350
2119.000000	6.374665
2120.000000	6.395210
2121.000000	6.415393
2122.000000	6.410810
2123.000000	6.407008
2124.000000	6.428060
2125.000000	6.422940
2126.000000	6.442732
2127.000000	6.436935
2128.000000	6.404873
2129.000000	6.372822
2130.000000	6.341630
2131.000000	6.335325
2132.000000	6.303560
2133.000000	6.270912
2134.000000	6.263530
2135.000000	6.231252
2136.000000	6.223368
2137.000000	6.215680
2138.000000	6.232653
2139.000000	6.224405
2140.000000	6.216202
2141.000000	6.182638
2142.000000	6.174130
2143.000000	6.166042
2144.000000	6.131765
2145.000000	6.122360
2146.000000	6.088195
2147.000000	6.078315
2148.000000	6.044395
2149.000000	6.035348
2150.000000	6.025663
2151.000000	6.016872
2152.000000	5.982050
2153.000000	5.946040
2154.000000	5.936167
2155.000000	5.926640
2156.000000	5.917760
2157.000000	5.909380
2158.000000	5.875262
2159.000000	5.840515
2160.000000	5.806622
2161.000000	5.772645
2162.000000	5.764888
2163.000000	5.757800
2164.000000	5.725335
2165.000000	5.693738
2166.000000	5.661798
2167.000000	5.630040
2168.000000	5.623677
2169.000000	5.618425
2170.000000	5.612570
2171.000000	5.606695
2172.000000	5.575843
2173.000000	5.571257
2174.000000	5.566883
2175.000000	5.536833
2176.000000	5.506762
2177.000000	5.477688
2178.000000	5.472965
2179.000000	5.468115
2180.000000	5.438340
2181.000000	5.408793
2182.000000	5.404508
2183.000000	5.372880
2184.000000	5.341708
2185.000000	5.335263
2186.000000	5.329083
2187.000000	5.321020
2188.000000	5.287483
2189.000000	5.228173
2190.000000	5.193605
2191.000000	5.157590
2192.000000	5.119990
2193.000000	5.083665
2194.000000	5.044602
2195.000000	5.003502
2196.000000	4.961035
2197.000000	4.918932
2198.000000	4.876455
2199.000000	4.833952
2200.000000	4.815803
2201.000000	4.772118
2202.000000	4.729355
2203.000000	4.686538
2204.000000	4.645030
2205.000000	4.606140
2206.000000	4.568930
2207.000000	4.531518
2208.000000	4.496645
2209.000000	4.488095
2210.000000	4.456425
2211.000000	4.453673
2212.000000	4.451155
2213.000000	4.450247
2214.000000	4.451420
2215.000000	4.453890
2216.000000	4.456987
2217.000000	4.436427
2218.000000	4.441528
2219.000000	4.447595
2220.000000	4.455097
2221.000000	4.461558
2222.000000	4.493750
2223.000000	4.500730
2224.000000	4.507862
2225.000000	4.514980
2226.000000	4.522323
2227.000000	4.580598
2228.000000	4.587363
2229.000000	4.618702
2230.000000	4.648345
2231.000000	4.677567
2232.000000	4.683345
2233.000000	4.710843
2234.000000	4.713445
2235.000000	4.739397
2236.000000	4.740420
2237.000000	4.714830
2238.000000	4.738275
2239.000000	4.736282
2240.000000	4.734732
2241.000000	4.731965
2242.000000	4.702825
2243.000000	4.699050
2244.000000	4.720215
2245.000000	4.716242
2246.000000	4.736445
2247.000000	4.756602
2248.000000	4.751712
2249.000000	4.747505
2250.000000	4.741532
2251.000000	4.736910
2252.000000	4.756840
2253.000000	4.752867
2254.000000	4.747447
2255.000000	4.743430
2256.000000	4.738958
2257.000000	4.735475
2258.000000	4.732878
2259.000000	4.729830
2260.000000	4.728542
2261.000000	4.725668
2262.000000	4.724820
2263.000000	4.724752
2264.000000	4.749803
2265.000000	4.775608
2266.000000	4.777550
2267.000000	4.803235
2268.000000	4.805452
2269.000000	4.808275
2270.000000	4.834838
2271.000000	4.863468
2272.000000	4.891903
2273.000000	4.921500
2274.000000	4.924622
2275.000000	4.927020
2276.000000	4.929918
2277.000000	4.933420
2278.000000	4.960955
2279.000000	4.988507
2280.000000	4.992478
2281.000000	4.995845
2282.000000	4.998222
2283.000000	4.999373
2284.000000	5.003130
2285.000000	5.006272
2286.000000	5.034283
2287.000000	5.038272
2288.000000	5.067163
2289.000000	5.094875
2290.000000	5.123653
2291.000000	5.152915
2292.000000	5.181725
2293.000000	5.212140
2294.000000	5.216220
2295.000000	5.246728
2296.000000	5.276855
2297.000000	5.306910
2298.000000	5.312440
2299.000000	5.318550
2300.000000	5.323375
2301.000000	5.328708
2302.000000	5.359005
2303.000000	5.389095
2304.000000	5.419125
2305.000000	5.423802
2306.000000	5.428165
2307.000000	5.457202
2308.000000	5.487055
2309.000000	5.517025
2310.000000	5.546852
2311.000000	5.575662
2312.000000	5.579895
2313.000000	5.583485
2314.000000	5.613015
2315.000000	5.641602
2316.000000	5.670457
2317.000000	5.698988
2318.000000	5.701257
2319.000000	5.728427
2320.000000	5.755805
2321.000000	5.783347
2322.000000	5.810570
2323.000000	5.836932
2324.000000	5.838753
2325.000000	5.840930
2326.000000	5.842120
2327.000000	5.843205
2328.000000	5.869205
2329.000000	5.869515
2330.000000	5.870400
2331.000000	5.871205
2332.000000	5.871643
2333.000000	5.872360
2334.000000	5.897420
2335.000000	5.922047
2336.000000	5.946998
2337.000000	5.946848
2338.000000	5.947463
2339.000000	5.948672
2340.000000	5.974105
2341.000000	5.999425
2342.000000	6.024962
2343.000000	6.050895
2344.000000	6.076695
2345.000000	6.077450
2346.000000	6.078665
2347.000000	6.105255
2348.000000	6.131340
2349.000000	6.157290
2350.000000	6.158360
2351.000000	6.160238
2352.000000	6.162130
2353.000000	6.163593
2354.000000	6.165038
2355.000000	6.191915
2356.000000	6.244002
2357.000000	6.245588
2358.000000	6.246815
2359.000000	6.249372
2360.000000	6.276527
2361.000000	6.302523
2362.000000	6.328660
2363.000000	6.329615
2364.000000	6.330762
2365.000000	6.331177
2366.000000	6.331835
2367.000000	6.358213
2368.000000	6.384662
2369.000000	6.384527
2370.000000	6.384565
2371.000000	6.384890
2372.000000	6.385070
2373.000000	6.410627
2374.000000	6.436155
2375.000000	6.462115
2376.000000	6.462555
2377.000000	6.437212
2378.000000	6.436713
2379.000000	6.486773
2380.000000	6.512210
2381.000000	6.512680
2382.000000	6.512637
2383.000000	6.536975
2384.000000	6.561218
2385.000000	6.560350
2386.000000	6.534710
2387.000000	6.560145
2388.000000	6.560225
2389.000000	6.559380
2390.000000	6.557823
2391.000000	6.580737
2392.000000	6.579355
2393.000000	6.553917
2394.000000	6.528177
2395.000000	6.551490
2396.000000	6.574170
2397.000000	6.570993
2398.000000	6.567848
2399.000000	6.565748
2400.000000	6.589163
2401.000000	6.612863
2402.000000	6.635165
2403.000000	6.656305
2404.000000	6.652690
2405.000000	6.624610
2406.000000	6.646497
2407.000000	6.668133
2408.000000	6.689265
2409.000000	6.684980
2410.000000	6.655032
2411.000000	6.624955
2412.000000	6.620765
2413.000000	6.642260
2414.000000	6.688312
2415.000000	6.733468
2416.000000	6.728815
2417.000000	6.723663
2418.000000	6.718732
2419.000000	6.713893
2420.000000	6.734115
2421.000000	6.754405
2422.000000	6.723558
2423.000000	6.666720
2424.000000	6.634082
2425.000000	6.651980
2426.000000	6.668988
2427.000000	6.711978
2428.000000	6.705187
2429.000000	6.722537
2430.000000	6.739515
2431.000000	6.755962
2432.000000	6.823280
2433.000000	6.891045
2434.000000	6.909055
2435.000000	6.877340
2436.000000	6.871012
2437.000000	6.814072
2438.000000	6.832782
2439.000000	6.851703
2440.000000	6.870667
2441.000000	6.865263
2442.000000	6.859035
2443.000000	6.827345
2444.000000	6.822047
2445.000000	6.841543
2446.000000	6.911103
2447.000000	6.980735
2448.000000	7.024870
2449.000000	7.019673
2450.000000	7.013898
2451.000000	7.033210
2452.000000	7.052643
2453.000000	7.123025
2454.000000	7.242233
2455.000000	7.311858
2456.000000	7.332020
2457.000000	7.376435
2458.000000	7.420303
2459.000000	7.515268
2460.000000	7.609733
2461.000000	7.679902
2462.000000	7.727470
2463.000000	7.774917
2464.000000	7.797165
2465.000000	7.844145
2466.000000	7.865208
2467.000000	7.912257
2468.000000	7.984770
2469.000000	8.058315
2470.000000	8.132487
2471.000000	8.181480
2472.000000	8.277658
2473.000000	8.425310
2474.000000	8.597660
2475.000000	8.746405
2476.000000	8.971163
2477.000000	9.071927
2478.000000	9.247042
2479.000000	9.320530
2480.000000	9.446075
2481.000000	9.619095
2482.000000	9.794970
2483.000000	9.919695
2484.000000	9.996742
2485.000000	10.150905
2486.000000	10.177067
2487.000000	10.303307
2488.000000	10.383395
2489.000000	10.559450
2490.000000	10.706435
2491.000000	10.886125
2492.000000	11.042800
2493.000000	11.198075
2494.000000	11.423468
2495.000000	11.580642
2496.000000	11.762635
2497.000000	12.020425
2498.000000	12.174030
2499.000000	12.410177
2500.000000	12.624358
2501.000000	16.136170
2502.000000	19.845018
2503.000000	23.730185
2504.000000	27.744135
2505.000000	31.973357
2506.000000	36.355690
2507.000000	40.861360
2508.000000	45.018625
2509.000000	49.371738
2510.000000	54.300000
2511.000000	55.700000
2512.000000	56.500000
2513.000000	57.400000
2514.000000	58.200000
2515.000000	59.000000
2516.000000	59.700000
2517.000000	59.900000
2518.000000	60.700000
2519.000000	61.300000
2520.000000	61.800000
2521.000000	62.700000
2522.000000	64.100000
2523.000000	65.000000
2524.000000	65.800000
2525.000000	66.800000
2526.000000	67.800000
2527.000000	69.400000
2528.000000	70.700000
2529.000000	71.400000
2530.000000	72.200000
2531.000000	73.000000
2532.000000	73.200000
2533.000000	74.200000
2534.000000	75.200000
2535.000000	75.900000
2536.000000	76.400000
2537.000000	76.500000
2538.000000	77.200000
2539.000000	78.800000
2540.000000	79.400000
2541.000000	79.800000
2542.000000	81.100000
2543.000000	81.800000
2544.000000	82.600000
2545.000000	83.700000
2546.000000	84.900000
2547.000000	86.400000
2548.000000	87.600000
2549.000000	88.300000
2550.000000	88.900000
2551.000000	89.900000
2552.000000	90.500000
2553.000000	91.000000
2554.000000	91.200000
2555.000000	91.400000
2556.000000	91.500000
2557.000000	90.900000
2558.000000	90.400000
2559.000000	90.300000
2560.000000	90.600000
2561.000000	90.700000
2562.000000	90.800000
2563.000000	91.000000
2564.000000	91.700000
2565.000000	92.000000
2566.000000	92.100000
2567.000000	92.400000
2568.000000	92.800000
2569.000000	92.700000
2570.000000	93.100000
2571.000000	93.600000
2572.000000	93.800000
2573.000000	94.300000
2574.000000	95.100000
2575.000000	95.400000
2576.000000	96.100000
2577.000000	96.900000
2578.000000	97.100000
2579.000000	98.100000
2580.000000	98.900000
2581.000000	99.100000
2582.000000	99.300000
2583.000000	99.600000
2584.000000	98.800000
2585.000000	98.200000
2586.000000	98.000000
2587.000000	98.200000
2588.000000	98.800000
2589.000000	98.700000
2590.000000	98.300000
2591.000000	97.900000
2592.000000	98.000000
2593.000000	97.900000
2594.000000	98.200000
2595.000000	98.800000
2596.000000	99.000000
2597.000000	98.700000
2598.000000	98.800000
2599.000000	99.000000
2600.000000	98.900000
2601.000000	98.900000
2602.000000	99.300000
2603.000000	99.300000
2604.000000	99.200000
2605.000000	99.300000
2606.000000	99.100000
2607.000000	99.000000
2608.000000	98.900000
2609.000000	98.800000
2610.000000	98.400000
2611.000000	98.100000
2612.000000	97.400000
2613.000000	97.300000
2614.000000	97.100000
2615.000000	96.700000
2616.000000	97.000000
2617.000000	97.600000
2618.000000	97.500000
2619.000000	97.400000
2620.000000	98.400000
2621.000000	99.200000
2622.000000	99.600000
2623.000000	99.900000
2624.000000	100.100000
2625.000000	100.300000
2626.000000	100.400000
2627.000000	100.600000
2628.000000	100.700000
2629.000000	100.500000
2630.000000	99.800000
2631.000000	99.800000
2632.000000	100.200000
2633.000000	100.200000
2634.000000	100.500000
2635.000000	100.800000
2636.000000	100.500000
2637.000000	100.100000
2638.000000	99.900000
2639.000000	100.000000
2640.000000	100.900000
2641.000000	101.900000
2642.000000	102.400000
2643.000000	102.000000
2644.000000	101.300000
2645.000000	101.200000
2646.000000	101.200000
2647.000000	101.200000
2648.000000	101.900000
2649.000000	102.500000
2650.000000	102.300000
2651.000000	101.100000
2652.000000	100.300000
2653.000000	100.500000
2654.000000	101.600000
2655.000000	101.700000
2656.000000	101.700000
2657.000000	102.300000
2658.000000	101.700000
2659.000000	100.800000
2660.000000	100.500000
2661.000000	100.700000
2662.000000	101.200000
2663.000000	101.500000
2664.000000	100.900000
2665.000000	101.200000
2666.000000	101.700000
2667.000000	101.500000
2668.000000	101.800000
2669.000000	102.100000
2670.000000	102.000000
2671.000000	102.000000
2672.000000	101.500000
2673.000000	101.200000
2674.000000	101.500000
2675.000000	100.400000
2676.000000	99.200000
2677.000000	98.500000
2678.000000	98.000000
2679.000000	98.200000
2680.000000	98.800000
2681.000000	98.800000
2682.000000	98.300000
2683.000000	98.500000
2684.000000	98.700000
2685.000000	99.400000
2686.000000	100.800000
2687.000000	101.500000
2688.000000	101.100000
2689.000000	100.400000
2690.000000	99.500000
2691.000000	99.100000
2692.000000	99.800000
2693.000000	99.400000
2694.000000	100.100000
2695.000000	100.300000
2696.000000	100.300000
2697.000000	100.700000
2698.000000	102.700000
2699.000000	103.300000
2700.000000	104.100000
2701.000000	104.900000
2702.000000	105.400000
2703.000000	105.900000
2704.000000	104.700000
2705.000000	104.400000
2706.000000	104.300000
2707.000000	105.000000
2708.000000	103.600000
2709.000000	103.800000
2710.000000	104.200000
2711.000000	103.600000
2712.000000	102.200000
2713.000000	102.500000
2714.000000	102.300000
2715.000000	102.600000
2716.000000	102.900000
2717.000000	101.600000
2718.000000	102.200000
2719.000000	103.000000
2720.000000	102.400000
2721.000000	102.300000
2722.000000	103.200000
2723.000000	103.000000
2724.000000	103.100000
2725.000000	102.300000
2726.000000	102.000000
2727.000000	102.700000
2728.000000	102.100000
2729.000000	101.400000
2730.000000	101.400000
2731.000000	101.400000
2732.000000	100.900000
2733.000000	101.400000
2734.000000	102.700000
2735.000000	103.300000
2736.000000	103.200000
2737.000000	102.700000
2738.000000	103.500000
2739.000000	101.700000
2740.000000	101.500000
2741.000000	102.500000
2742.000000	102.800000
2743.000000	102.400000
2744.000000	101.300000
2745.000000	102.300000
2746.000000	102.400000
2747.000000	102.200000
2748.000000	100.700000
2749.000000	102.100000
2750.000000	103.300000
2751.000000	102.600000
2752.000000	103.200000
2753.000000	102.900000
2754.000000	103.500000
2755.000000	102.300000
2756.000000	102.200000
2757.000000	101.900000
2758.000000	103.200000
2759.000000	102.700000
2760.000000	101.500000
2761.000000	101.100000
2762.000000	100.700000
2763.000000	99.500000
2764.000000	98.900000
2765.000000	99.100000
2766.000000	98.400000
2767.000000	98.700000
2768.000000	97.800000
2769.000000	98.700000
2770.000000	98.100000
2771.000000	98.500000
2772.000000	98.600000
2773.000000	99.600000
2774.000000	99.300000
2775.000000	99.200000
2776.000000	99.700000
2777.000000	99.500000
2778.000000	99.900000
2779.000000	99.100000
2780.000000	99.800000
2781.000000	99.900000
2782.000000	98.900000
2783.000000	99.500000
2784.000000	100.000000
2785.000000	101.000000
2786.000000	101.900000
2787.000000	102.300000
2788.000000	102.400000
2789.000000	103.100000
2790.000000	102.900000
2791.000000	103.200000
2792.000000	104.500000
2793.000000	104.100000
2794.000000	103.700000
2795.000000	102.100000
2796.000000	100.900000
2797.000000	100.600000
2798.000000	100.700000
2799.000000	100.200000
2800.000000	100.600000
2801.000000	100.000000
2802.000000	99.100000
2803.000000	98.400000
2804.000000	98.800000
2805.000000	100.100000
2806.000000	100.500000
2807.000000	100.900000
2808.000000	100.800000
2809.000000	101.600000
2810.000000	101.100000
2811.000000	101.500000
2812.000000	102.200000
2813.000000	102.800000
2814.000000	102.900000
2815.000000	102.000000
2816.000000	101.900000
2817.000000	101.400000
2818.000000	101.300000
2819.000000	100.600000
2820.000000	100.600000
2821.000000	100.200000
2822.000000	99.600000
2823.000000	100.000000
2824.000000	100.000000
2825.000000	100.100000
2826.000000	99.700000
2827.000000	100.000000
2828.000000	99.600000
2829.000000	100.100000
2830.000000	100.400000
2831.000000	100.300000
2832.000000	101.000000
2833.000000	100.900000
2834.000000	100.500000
2835.000000	101.100000
2836.000000	101.600000
2837.000000	101.300000
2838.000000	101.700000
2839.000000	101.600000
2840.000000	101.700000
2841.000000	102.600000
2842.000000	102.300000
2843.000000	102.000000
2844.000000	102.300000
2845.000000	101.900000
2846.000000	101.300000
2847.000000	101.600000
2848.000000	101.900000
2849.000000	101.800000
2850.000000	101.800000
2851.000000	101.500000
2852.000000	101.400000
2853.000000	101.500000
2854.000000	101.600000
2855.000000	101.600000
2856.000000	101.900000
2857.000000	101.400000
2858.000000	100.800000
2859.000000	101.000000
2860.000000	100.800000
2861.000000	100.300000
2862.000000	100.400000
2863.000000	99.900000
2864.000000	99.400000
2865.000000	99.900000
2866.000000	100.900000
2867.000000	101.700000
2868.000000	101.800000
2869.000000	101.000000
2870.000000	100.900000
2871.000000	101.600000
2872.000000	101.500000
2873.000000	101.700000
2874.000000	102.200000
2875.000000	102.500000
2876.000000	102.000000
2877.000000	100.900000
2878.000000	100.300000
2879.000000	100.500000
2880.000000	100.500000
2881.000000	100.100000
2882.000000	99.600000
2883.000000	99.300000
2884.000000	98.700000
2885.000000	97.800000
2886.000000	97.400000
2887.000000	97.800000
2888.000000	98.500000
2889.000000	98.600000
2890.000000	97.900000
2891.000000	97.100000
2892.000000	97.000000
2893.000000	97.400000
2894.000000	97.600000
2895.000000	97.100000
2896.000000	96.500000
2897.000000	96.400000
2898.000000	96.100000
2899.000000	96.400000
2900.000000	97.300000
2901.000000	97.600000
2902.000000	98.200000
2903.000000	98.400000
2904.000000	98.200000
2905.000000	98.800000
2906.000000	100.300000
2907.000000	101.500000
2908.000000	102.000000
2909.000000	102.300000
2910.000000	102.300000
2911.000000	102.500000
2912.000000	102.800000
2913.000000	102.800000
2914.000000	103.300000
2915.000000	103.600000
2916.000000	102.700000
2917.000000	102.400000
2918.000000	103.000000
2919.000000	102.000000
2920.000000	101.500000
2921.000000	101.500000
2922.000000	100.800000
2923.000000	101.000000
2924.000000	101.300000
2925.000000	100.400000
2926.000000	100.100000
2927.000000	100.000000
2928.000000	98.700000
2929.000000	98.700000
2930.000000	99.000000
2931.000000	99.300000
2932.000000	99.900000
2933.000000	99.300000
2934.000000	98.800000
2935.000000	99.600000
2936.000000	99.400000
2937.000000	98.300000
2938.000000	99.000000
2939.000000	100.000000
2940.000000	100.600000
2941.000000	101.300000
2942.000000	101.300000
2943.000000	100.900000
2944.000000	101.400000
2945.000000	102.000000
2946.000000	102.900000
2947.000000	103.200000
2948.000000	102.900000
2949.000000	102.600000
2950.000000	102.000000
2951.000000	101.200000
2952.000000	101.400000
2953.000000	102.000000
2954.000000	100.900000
2955.000000	99.600000
2956.000000	98.700000
2957.000000	99.400000
2958.000000	100.000000
2959.000000	100.500000
2960.000000	100.800000
2961.000000	101.400000
2962.000000	101.100000
2963.000000	101.500000
2964.000000	102.000000
2965.000000	102.000000
2966.000000	102.100000
2967.000000	101.600000
2968.000000	101.600000
2969.000000	100.500000
2970.000000	99.600000
2971.000000	98.700000
2972.000000	98.900000
2973.000000	99.400000
2974.000000	100.200000
2975.000000	101.200000
2976.000000	101.600000
2977.000000	102.400000
2978.000000	102.700000
2979.000000	104.000000
2980.000000	104.800000
2981.000000	105.000000
2982.000000	105.600000
2983.000000	105.200000
2984.000000	105.200000
2985.000000	105.200000
2986.000000	106.000000
2987.000000	105.400000
2988.000000	104.700000
2989.000000	104.100000
2990.000000	103.900000
2991.000000	104.000000
2992.000000	102.400000
2993.000000	101.700000
2994.000000	100.900000
2995.000000	100.200000
2996.000000	99.500000
2997.000000	99.500000
2998.000000	100.500000
2999.000000	100.400000
3000.000000	99.600000
