PE UV       SUBTECH     SPECTRUM    ASCII       PEDS        4.00        
   -1
INBUCR0411-4.Sample.ASC
24/02/09
10:46:22.00
24/02/09
10:46:22.00
Vinicio Soto Monge
C. chalcothea Det: A Solís. INB0003489977 INBIOCRI COSTA RICA. COSTA RICA. Prov Cartago. R. F. Río Macho. Alrededor Estación la Esperanza. 2650 m. 26-29 MAY 2002, #69624. Sin élitros. Élitro DER en vial sin un cuadrito. 
250,000000
1
Lambda 1050
1050L1511233
PerkinElmer UV WinLab 6.3.2.0749 / 2.02.05 Lambda 900 UV/VIS/NIR, Aug  7 2015 09:38:08

0
0
3350/servo 860,8/2
0
0
UV/VIS
1
1
1
DoubleDePol,CommonBeamDepol,RBeamAtt,SBeamAtt,60mm sphere, WB InGaAs Detector
0
0
0
0
Program
Program
3350/servo 860,8/2
3350/0,2 860,8/0,2
3350/0,2 860,8/0,2
0
15.00
 
 
 
0
 
860,8
319,2
860,8
Front
100
on
S:100 R:100
0
0
0
0
 
0
 
 
 
0
 
 
0
0
0
0
0
 
 
 
 
0
0


0
0
#HDR
-1
-1
#GR
nm
%R
1.0
0.0
2500,000000
-1,000000
2251
8
18,138800
0,749700
#DATA

250.000000	nan
251.000000	nan
252.000000	nan
253.000000	nan
254.000000	nan
255.000000	nan
256.000000	nan
257.000000	nan
258.000000	nan
259.000000	4.396257
260.000000	4.392600
261.000000	4.389941
262.000000	4.385923
263.000000	4.381492
264.000000	4.377323
265.000000	4.371332
266.000000	4.363554
267.000000	4.358799
268.000000	4.351894
269.000000	4.346562
270.000000	4.340752
271.000000	4.334329
272.000000	4.325937
273.000000	4.321198
274.000000	4.315487
275.000000	4.309049
276.000000	4.306749
277.000000	4.301078
278.000000	4.295158
279.000000	4.288980
280.000000	4.286147
281.000000	4.284254
282.000000	4.284170
283.000000	4.279614
284.000000	4.276455
285.000000	4.274140
286.000000	4.273139
287.000000	4.272353
288.000000	4.274166
289.000000	4.275258
290.000000	4.276657
291.000000	4.277502
292.000000	4.279609
293.000000	4.284126
294.000000	4.287469
295.000000	4.292171
296.000000	4.293716
297.000000	4.298692
298.000000	4.302302
299.000000	4.306895
300.000000	4.309761
301.000000	4.313474
302.000000	4.316829
303.000000	4.318781
304.000000	4.320390
305.000000	4.322398
306.000000	4.326774
307.000000	4.329579
308.000000	4.334044
309.000000	4.335286
310.000000	4.339202
311.000000	4.341411
312.000000	4.344676
313.000000	4.347132
314.000000	4.351478
315.000000	4.356636
316.000000	4.358404
317.000000	4.408812
318.000000	4.468884
319.000000	4.495315
320.000000	4.547333
321.000000	4.565986
322.000000	4.622103
323.000000	4.668725
324.000000	4.697310
325.000000	4.741906
326.000000	4.785815
327.000000	4.760529
328.000000	4.722133
329.000000	4.747725
330.000000	4.738280
331.000000	4.766991
332.000000	4.761843
333.000000	4.772756
334.000000	4.790118
335.000000	4.790059
336.000000	4.767368
337.000000	4.786149
338.000000	4.812381
339.000000	4.814423
340.000000	4.822150
341.000000	4.821102
342.000000	4.816126
343.000000	4.801684
344.000000	4.801261
345.000000	4.798986
346.000000	4.827917
347.000000	4.834965
348.000000	4.833205
349.000000	4.825125
350.000000	4.820935
351.000000	4.823633
352.000000	4.823074
353.000000	4.828565
354.000000	4.829953
355.000000	4.833848
356.000000	4.832207
357.000000	4.827472
358.000000	4.827892
359.000000	4.835857
360.000000	4.837267
361.000000	4.834949
362.000000	4.838510
363.000000	4.840656
364.000000	4.846198
365.000000	4.817169
366.000000	4.817455
367.000000	4.819398
368.000000	4.823341
369.000000	4.822966
370.000000	4.822190
371.000000	4.825781
372.000000	4.821587
373.000000	4.816846
374.000000	4.808163
375.000000	4.827521
376.000000	4.824915
377.000000	4.825160
378.000000	4.821625
379.000000	4.817750
380.000000	4.817477
381.000000	4.815743
382.000000	4.817228
383.000000	4.820613
384.000000	4.825809
385.000000	4.836642
386.000000	4.839787
387.000000	4.844134
388.000000	4.847904
389.000000	4.851939
390.000000	4.856200
391.000000	4.860308
392.000000	4.865166
393.000000	4.869469
394.000000	4.873730
395.000000	4.878542
396.000000	4.882992
397.000000	4.887277
398.000000	4.891731
399.000000	4.896246
400.000000	4.901166
401.000000	4.906052
402.000000	4.910531
403.000000	4.915097
404.000000	4.919662
405.000000	4.924160
406.000000	4.928554
407.000000	4.932666
408.000000	4.936887
409.000000	4.941210
410.000000	4.945436
411.000000	4.949622
412.000000	4.954021
413.000000	4.958688
414.000000	4.963563
415.000000	4.968141
416.000000	4.972870
417.000000	4.977590
418.000000	4.982409
419.000000	4.987489
420.000000	4.992673
421.000000	4.997898
422.000000	5.003491
423.000000	5.009007
424.000000	5.014195
425.000000	5.019871
426.000000	5.025889
427.000000	5.032302
428.000000	5.038635
429.000000	5.044844
430.000000	5.051190
431.000000	5.057530
432.000000	5.063685
433.000000	5.070221
434.000000	5.077055
435.000000	5.084112
436.000000	5.091299
437.000000	5.098541
438.000000	5.105988
439.000000	5.113386
440.000000	5.120947
441.000000	5.129265
442.000000	5.137695
443.000000	5.145974
444.000000	5.154347
445.000000	5.162237
446.000000	5.170344
447.000000	5.178652
448.000000	5.187050
449.000000	5.195830
450.000000	5.204598
451.000000	5.213193
452.000000	5.222098
453.000000	5.230932
454.000000	5.239755
455.000000	5.248847
456.000000	5.257912
457.000000	5.267185
458.000000	5.276626
459.000000	5.286054
460.000000	5.295308
461.000000	5.304441
462.000000	5.313738
463.000000	5.323458
464.000000	5.333493
465.000000	5.343761
466.000000	5.384512
467.000000	5.425317
468.000000	5.466535
469.000000	5.507890
470.000000	5.549659
471.000000	5.591875
472.000000	5.634290
473.000000	5.677230
474.000000	5.720331
475.000000	5.763629
476.000000	5.776906
477.000000	5.790183
478.000000	5.803409
479.000000	5.817202
480.000000	5.831222
481.000000	5.845338
482.000000	5.859541
483.000000	5.873838
484.000000	5.888364
485.000000	5.903169
486.000000	5.918212
487.000000	5.933726
488.000000	5.949556
489.000000	5.965282
490.000000	5.981566
491.000000	6.028567
492.000000	6.075914
493.000000	6.123468
494.000000	6.171244
495.000000	6.219233
496.000000	6.268040
497.000000	6.317501
498.000000	6.367607
499.000000	6.418393
500.000000	6.469514
501.000000	6.521319
502.000000	6.573767
503.000000	6.626860
504.000000	6.680858
505.000000	6.735742
506.000000	6.790972
507.000000	6.846746
508.000000	6.903191
509.000000	6.960318
510.000000	7.048710
511.000000	7.107379
512.000000	7.166639
513.000000	7.226642
514.000000	7.287205
515.000000	7.348383
516.000000	7.440214
517.000000	7.532340
518.000000	7.624500
519.000000	7.716954
520.000000	7.778843
521.000000	7.840582
522.000000	7.932966
523.000000	8.025537
524.000000	8.117939
525.000000	8.210108
526.000000	8.271770
527.000000	8.333322
528.000000	8.394996
529.000000	8.487160
530.000000	8.579538
531.000000	8.671735
532.000000	8.733195
533.000000	8.794763
534.000000	8.856270
535.000000	8.917616
536.000000	8.979042
537.000000	9.040468
538.000000	9.101840
539.000000	9.132001
540.000000	9.162570
541.000000	9.192843
542.000000	9.223245
543.000000	9.252834
544.000000	9.282477
545.000000	9.311807
546.000000	9.340727
547.000000	9.369628
548.000000	9.397977
549.000000	9.426780
550.000000	9.454503
551.000000	9.482214
552.000000	9.509290
553.000000	9.536408
554.000000	9.562891
555.000000	9.589089
556.000000	9.614890
557.000000	9.639213
558.000000	9.663568
559.000000	9.687411
560.000000	9.707711
561.000000	9.726837
562.000000	9.745640
563.000000	9.763398
564.000000	9.750071
565.000000	9.736189
566.000000	9.722285
567.000000	9.708091
568.000000	9.693338
569.000000	9.677668
570.000000	9.665172
571.000000	9.652802
572.000000	9.609494
573.000000	9.566582
574.000000	9.553953
575.000000	9.541189
576.000000	9.528305
577.000000	9.516452
578.000000	9.504506
579.000000	9.492741
580.000000	9.450488
581.000000	9.408800
582.000000	9.397869
583.000000	9.386902
584.000000	9.375986
585.000000	9.365578
586.000000	9.354950
587.000000	9.344930
588.000000	9.334853
589.000000	9.325558
590.000000	9.346514
591.000000	9.368051
592.000000	9.389843
593.000000	9.411808
594.000000	9.433977
595.000000	9.456886
596.000000	9.480001
597.000000	9.502033
598.000000	9.524490
599.000000	9.546860
600.000000	9.569574
601.000000	9.591848
602.000000	9.614313
603.000000	9.635963
604.000000	9.658092
605.000000	9.679604
606.000000	9.701362
607.000000	9.724072
608.000000	9.745980
609.000000	9.767491
610.000000	9.789012
611.000000	9.810578
612.000000	9.831635
613.000000	9.853691
614.000000	9.874890
615.000000	9.896215
616.000000	9.917148
617.000000	9.937488
618.000000	9.958158
619.000000	9.979247
620.000000	10.000200
621.000000	10.020676
622.000000	10.041461
623.000000	10.061907
624.000000	10.083501
625.000000	10.104682
626.000000	10.125831
627.000000	10.147443
628.000000	10.170118
629.000000	10.191964
630.000000	10.213943
631.000000	10.236113
632.000000	10.259283
633.000000	10.282942
634.000000	10.306379
635.000000	10.330228
636.000000	10.354700
637.000000	10.379792
638.000000	10.404020
639.000000	10.430004
640.000000	10.456883
641.000000	10.483696
642.000000	10.510210
643.000000	10.537109
644.000000	10.564251
645.000000	10.591923
646.000000	10.619986
647.000000	10.647837
648.000000	10.676507
649.000000	10.704965
650.000000	10.732817
651.000000	10.761751
652.000000	10.790729
653.000000	10.819604
654.000000	10.849044
655.000000	10.877821
656.000000	10.906366
657.000000	10.934785
658.000000	10.963727
659.000000	10.992247
660.000000	11.021442
661.000000	11.050322
662.000000	11.079127
663.000000	11.107733
664.000000	11.166413
665.000000	11.225152
666.000000	11.283410
667.000000	11.341631
668.000000	11.399413
669.000000	11.456636
670.000000	11.513302
671.000000	11.570125
672.000000	11.626777
673.000000	11.683349
674.000000	11.709069
675.000000	11.735372
676.000000	11.761613
677.000000	11.787161
678.000000	11.812158
679.000000	11.837934
680.000000	11.863806
681.000000	11.888583
682.000000	11.913631
683.000000	11.938420
684.000000	11.963243
685.000000	11.987658
686.000000	12.012838
687.000000	12.038670
688.000000	12.063871
689.000000	12.118960
690.000000	12.173646
691.000000	12.230080
692.000000	12.285932
693.000000	12.341575
694.000000	12.397101
695.000000	12.452887
696.000000	12.508992
697.000000	12.564477
698.000000	12.620065
699.000000	12.645826
700.000000	12.672131
701.000000	12.697407
702.000000	12.722092
703.000000	12.747187
704.000000	12.772911
705.000000	12.798154
706.000000	12.823041
707.000000	12.878230
708.000000	12.934869
709.000000	12.991683
710.000000	13.048569
711.000000	13.105247
712.000000	13.161813
713.000000	13.218682
714.000000	13.275404
715.000000	13.332600
716.000000	13.389181
717.000000	13.415631
718.000000	13.441592
719.000000	13.467039
720.000000	13.492575
721.000000	13.548677
722.000000	13.605580
723.000000	13.663014
724.000000	13.721097
725.000000	13.778693
726.000000	13.835655
727.000000	13.892344
728.000000	13.949121
729.000000	14.006671
730.000000	14.065045
731.000000	14.094301
732.000000	14.123631
733.000000	14.181290
734.000000	14.237360
735.000000	14.294237
736.000000	14.352075
737.000000	14.410681
738.000000	14.469877
739.000000	14.528524
740.000000	14.585771
741.000000	14.642325
742.000000	14.698927
743.000000	14.726591
744.000000	14.785755
745.000000	14.844027
746.000000	14.901864
747.000000	14.959739
748.000000	15.016936
749.000000	15.074393
750.000000	15.131836
751.000000	15.189629
752.000000	15.247932
753.000000	15.306021
754.000000	15.363817
755.000000	15.421819
756.000000	15.480246
757.000000	15.538733
758.000000	15.597194
759.000000	15.655793
760.000000	15.715508
761.000000	15.775498
762.000000	15.834514
763.000000	15.922494
764.000000	15.979857
765.000000	16.038464
766.000000	16.098779
767.000000	16.157929
768.000000	16.216027
769.000000	16.274397
770.000000	16.332992
771.000000	16.420465
772.000000	16.509304
773.000000	16.570701
774.000000	16.630292
775.000000	16.689357
776.000000	16.747617
777.000000	16.805829
778.000000	16.864457
779.000000	16.953095
780.000000	17.041345
781.000000	17.099416
782.000000	17.157086
783.000000	17.214154
784.000000	17.272100
785.000000	17.331004
786.000000	17.391831
787.000000	17.452011
788.000000	17.542434
789.000000	17.603200
790.000000	17.663492
791.000000	17.724737
792.000000	17.785525
793.000000	17.845269
794.000000	17.907742
795.000000	17.969435
796.000000	18.027593
797.000000	18.116881
798.000000	18.177691
799.000000	18.238382
800.000000	18.297895
801.000000	18.356811
802.000000	18.417265
803.000000	18.479190
804.000000	18.540125
805.000000	18.598386
806.000000	18.687779
807.000000	18.748244
808.000000	18.809928
809.000000	18.869864
810.000000	18.931928
811.000000	18.993418
812.000000	19.052603
813.000000	19.111328
814.000000	19.168198
815.000000	19.229567
816.000000	19.259567
817.000000	19.288816
818.000000	19.345251
819.000000	19.401861
820.000000	19.459958
821.000000	19.516911
822.000000	19.575391
823.000000	19.633742
824.000000	19.693983
825.000000	19.749606
826.000000	19.808764
827.000000	19.868474
828.000000	19.894902
829.000000	19.922030
830.000000	19.946717
831.000000	19.970506
832.000000	19.995189
833.000000	20.019445
834.000000	20.041754
835.000000	20.062199
836.000000	20.080607
837.000000	20.131473
838.000000	20.185764
839.000000	20.234598
840.000000	20.280272
841.000000	20.331073
842.000000	20.379242
843.000000	20.427444
844.000000	20.478603
845.000000	20.531964
846.000000	20.577975
847.000000	20.591450
848.000000	20.604062
849.000000	20.622666
850.000000	20.641786
851.000000	20.653137
852.000000	20.659319
853.000000	20.672262
854.000000	20.674918
855.000000	20.681301
856.000000	20.686406
857.000000	20.717761
858.000000	21.040287
859.000000	21.110816
860.000000	21.183062
861.000000	21.285872
862.000000	21.394380
863.000000	21.469638
864.000000	21.553802
865.000000	21.633241
866.000000	21.694881
867.000000	21.727917
868.000000	21.469535
869.000000	21.460637
870.000000	21.425528
871.000000	21.389598
872.000000	21.351247
873.000000	21.336678
874.000000	21.320028
875.000000	21.278523
876.000000	21.285575
877.000000	21.268543
878.000000	21.251103
879.000000	21.233195
880.000000	21.240785
881.000000	21.221525
882.000000	21.178040
883.000000	21.161857
884.000000	21.118590
885.000000	21.101815
886.000000	21.060482
887.000000	21.043845
888.000000	21.027252
889.000000	21.010493
890.000000	20.993660
891.000000	20.976373
892.000000	20.984873
893.000000	20.941682
894.000000	20.951180
895.000000	20.934600
896.000000	20.918365
897.000000	20.901760
898.000000	20.884847
899.000000	20.868965
900.000000	20.852263
901.000000	20.837933
902.000000	20.822652
903.000000	20.832422
904.000000	20.817415
905.000000	20.828770
906.000000	20.839480
907.000000	20.851217
908.000000	20.863935
909.000000	20.876748
910.000000	20.890593
911.000000	20.878073
912.000000	20.891908
913.000000	20.881760
914.000000	20.896832
915.000000	20.886560
916.000000	20.878285
917.000000	20.869432
918.000000	20.859248
919.000000	20.876443
920.000000	20.868695
921.000000	20.886888
922.000000	20.879455
923.000000	20.896710
924.000000	20.888005
925.000000	20.904730
926.000000	20.920758
927.000000	20.937785
928.000000	20.954708
929.000000	20.945322
930.000000	20.961640
931.000000	20.977695
932.000000	20.995423
933.000000	21.013768
934.000000	21.058675
935.000000	21.103435
936.000000	21.122823
937.000000	21.142645
938.000000	21.163683
939.000000	21.208288
940.000000	21.252453
941.000000	21.296672
942.000000	21.340772
943.000000	21.384283
944.000000	21.403028
945.000000	21.422425
946.000000	21.466703
947.000000	21.510888
948.000000	21.555433
949.000000	21.576315
950.000000	21.596843
951.000000	21.618840
952.000000	21.640562
953.000000	21.662400
954.000000	21.683070
955.000000	21.703537
956.000000	21.725520
957.000000	21.746972
958.000000	21.768133
959.000000	21.789195
960.000000	21.811507
961.000000	21.832115
962.000000	21.851828
963.000000	21.871890
964.000000	21.893063
965.000000	21.914003
966.000000	21.934555
967.000000	21.954885
968.000000	21.976572
969.000000	21.997098
970.000000	22.017238
971.000000	22.038308
972.000000	22.059405
973.000000	22.081140
974.000000	22.101450
975.000000	22.122158
976.000000	22.142355
977.000000	22.163242
978.000000	22.183245
979.000000	22.204017
980.000000	22.224877
981.000000	22.245920
982.000000	22.268055
983.000000	22.288620
984.000000	22.334027
985.000000	22.380020
986.000000	22.426160
987.000000	22.471778
988.000000	22.517848
989.000000	22.564145
990.000000	22.609817
991.000000	22.655035
992.000000	22.700313
993.000000	22.746637
994.000000	22.767907
995.000000	22.788565
996.000000	22.809197
997.000000	22.829385
998.000000	22.849882
999.000000	22.869592
1000.000000	22.889470
1001.000000	22.910128
1002.000000	22.929500
1003.000000	22.948377
1004.000000	22.968152
1005.000000	22.987078
1006.000000	23.005825
1007.000000	23.025395
1008.000000	23.044240
1009.000000	23.063432
1010.000000	23.083063
1011.000000	23.101705
1012.000000	23.121175
1013.000000	23.141627
1014.000000	23.161867
1015.000000	23.207262
1016.000000	23.252870
1017.000000	23.297890
1018.000000	23.342615
1019.000000	23.387805
1020.000000	23.432858
1021.000000	23.478613
1022.000000	23.524567
1023.000000	23.570220
1024.000000	23.615603
1025.000000	23.635720
1026.000000	23.656267
1027.000000	23.677092
1028.000000	23.698092
1029.000000	23.719180
1030.000000	23.740412
1031.000000	23.760587
1032.000000	23.779998
1033.000000	23.799952
1034.000000	23.820025
1035.000000	23.840620
1036.000000	23.861325
1037.000000	23.881478
1038.000000	23.902013
1039.000000	23.922908
1040.000000	23.943352
1041.000000	23.963963
1042.000000	23.985095
1043.000000	24.030590
1044.000000	24.076515
1045.000000	24.122757
1046.000000	24.169115
1047.000000	24.215642
1048.000000	24.262197
1049.000000	24.308345
1050.000000	24.354330
1051.000000	24.400965
1052.000000	24.447597
1053.000000	24.468095
1054.000000	24.488648
1055.000000	24.509763
1056.000000	24.530757
1057.000000	24.551882
1058.000000	24.573083
1059.000000	24.595110
1060.000000	24.617815
1061.000000	24.640490
1062.000000	24.662803
1063.000000	24.685365
1064.000000	24.707940
1065.000000	24.729885
1066.000000	24.752262
1067.000000	24.775317
1068.000000	24.798270
1069.000000	24.820828
1070.000000	24.842907
1071.000000	24.889677
1072.000000	24.937932
1073.000000	24.987178
1074.000000	25.035835
1075.000000	25.084975
1076.000000	25.133790
1077.000000	25.182163
1078.000000	25.230670
1079.000000	25.278793
1080.000000	25.327328
1081.000000	25.350695
1082.000000	25.372390
1083.000000	25.394520
1084.000000	25.418552
1085.000000	25.442510
1086.000000	25.465935
1087.000000	25.489722
1088.000000	25.512552
1089.000000	25.535065
1090.000000	25.557525
1091.000000	25.580507
1092.000000	25.604765
1093.000000	25.629192
1094.000000	25.652358
1095.000000	25.674580
1096.000000	25.697247
1097.000000	25.719405
1098.000000	25.742670
1099.000000	25.766638
1100.000000	25.790165
1101.000000	25.814685
1102.000000	25.838167
1103.000000	25.885397
1104.000000	25.932015
1105.000000	25.979318
1106.000000	26.026935
1107.000000	26.074982
1108.000000	26.122487
1109.000000	26.169962
1110.000000	26.218080
1111.000000	26.264978
1112.000000	26.311307
1113.000000	26.333545
1114.000000	26.356605
1115.000000	26.379532
1116.000000	26.402103
1117.000000	26.424898
1118.000000	26.447455
1119.000000	26.468937
1120.000000	26.489860
1121.000000	26.510957
1122.000000	26.533687
1123.000000	26.556035
1124.000000	26.578220
1125.000000	26.599360
1126.000000	26.620255
1127.000000	26.639775
1128.000000	26.659060
1129.000000	26.679220
1130.000000	26.697427
1131.000000	26.713135
1132.000000	26.725700
1133.000000	26.739070
1134.000000	26.752398
1135.000000	26.767858
1136.000000	26.781392
1137.000000	26.792355
1138.000000	26.803355
1139.000000	26.812278
1140.000000	26.821555
1141.000000	26.832685
1142.000000	26.844407
1143.000000	26.855690
1144.000000	26.865263
1145.000000	26.874717
1146.000000	26.884115
1147.000000	26.895923
1148.000000	26.906502
1149.000000	26.917770
1150.000000	26.929552
1151.000000	26.940738
1152.000000	26.953240
1153.000000	26.965267
1154.000000	26.975957
1155.000000	26.985305
1156.000000	26.994297
1157.000000	27.002185
1158.000000	27.010015
1159.000000	27.017280
1160.000000	26.998582
1161.000000	26.977485
1162.000000	26.954265
1163.000000	26.927895
1164.000000	26.902572
1165.000000	26.875005
1166.000000	26.847327
1167.000000	26.819430
1168.000000	26.792517
1169.000000	26.765947
1170.000000	26.764925
1171.000000	26.766195
1172.000000	26.768310
1173.000000	26.771567
1174.000000	26.775365
1175.000000	26.780057
1176.000000	26.784267
1177.000000	26.790690
1178.000000	26.795215
1179.000000	26.798737
1180.000000	26.802843
1181.000000	26.805953
1182.000000	26.808148
1183.000000	26.810453
1184.000000	26.812788
1185.000000	26.814605
1186.000000	26.817453
1187.000000	26.820655
1188.000000	26.824403
1189.000000	26.830270
1190.000000	26.837387
1191.000000	26.846227
1192.000000	26.857145
1193.000000	26.870975
1194.000000	26.885175
1195.000000	26.901863
1196.000000	26.920642
1197.000000	26.939045
1198.000000	26.959745
1199.000000	26.979928
1200.000000	27.000200
1201.000000	27.019838
1202.000000	27.039977
1203.000000	27.058505
1204.000000	27.077328
1205.000000	27.095440
1206.000000	27.112208
1207.000000	27.128410
1208.000000	27.145002
1209.000000	27.186912
1210.000000	27.228812
1211.000000	27.272045
1212.000000	27.316035
1213.000000	27.360548
1214.000000	27.406975
1215.000000	27.454968
1216.000000	27.505525
1217.000000	27.558265
1218.000000	27.612730
1219.000000	27.645083
1220.000000	27.679827
1221.000000	27.717410
1222.000000	27.756300
1223.000000	27.798212
1224.000000	27.841305
1225.000000	27.885438
1226.000000	27.929675
1227.000000	27.974287
1228.000000	28.018432
1229.000000	28.086245
1230.000000	28.153750
1231.000000	28.219350
1232.000000	28.283318
1233.000000	28.345297
1234.000000	28.405505
1235.000000	28.464075
1236.000000	28.520400
1237.000000	28.574525
1238.000000	28.628067
1239.000000	28.655875
1240.000000	28.681520
1241.000000	28.706485
1242.000000	28.731918
1243.000000	28.756810
1244.000000	28.782687
1245.000000	28.808440
1246.000000	28.835528
1247.000000	28.863695
1248.000000	28.891960
1249.000000	28.921463
1250.000000	28.951528
1251.000000	28.981472
1252.000000	29.011530
1253.000000	29.043147
1254.000000	29.074713
1255.000000	29.106463
1256.000000	29.137565
1257.000000	29.193078
1258.000000	29.247540
1259.000000	29.300458
1260.000000	29.352947
1261.000000	29.405032
1262.000000	29.456380
1263.000000	29.506175
1264.000000	29.554652
1265.000000	29.602692
1266.000000	29.649740
1267.000000	29.670792
1268.000000	29.690790
1269.000000	29.710667
1270.000000	29.730125
1271.000000	29.748747
1272.000000	29.765963
1273.000000	29.782598
1274.000000	29.798543
1275.000000	29.813685
1276.000000	29.829088
1277.000000	29.845342
1278.000000	29.862647
1279.000000	29.879825
1280.000000	29.896780
1281.000000	29.914598
1282.000000	29.933635
1283.000000	29.952807
1284.000000	29.972637
1285.000000	29.993315
1286.000000	30.014815
1287.000000	30.036482
1288.000000	30.058745
1289.000000	30.081100
1290.000000	30.102572
1291.000000	30.124133
1292.000000	30.145805
1293.000000	30.167077
1294.000000	30.188043
1295.000000	30.208340
1296.000000	30.227810
1297.000000	30.247345
1298.000000	30.266038
1299.000000	30.284340
1300.000000	30.303138
1301.000000	30.321732
1302.000000	30.339840
1303.000000	30.357577
1304.000000	30.374340
1305.000000	30.390490
1306.000000	30.406788
1307.000000	30.421530
1308.000000	30.435295
1309.000000	30.448365
1310.000000	30.460558
1311.000000	30.471463
1312.000000	30.481770
1313.000000	30.491577
1314.000000	30.501340
1315.000000	30.511160
1316.000000	30.520117
1317.000000	30.528410
1318.000000	30.536255
1319.000000	30.543835
1320.000000	30.551157
1321.000000	30.558242
1322.000000	30.564808
1323.000000	30.571075
1324.000000	30.576410
1325.000000	30.580317
1326.000000	30.583028
1327.000000	30.585628
1328.000000	30.587600
1329.000000	30.588940
1330.000000	30.589143
1331.000000	30.588615
1332.000000	30.587102
1333.000000	30.584480
1334.000000	30.581482
1335.000000	30.578302
1336.000000	30.574613
1337.000000	30.569160
1338.000000	30.562372
1339.000000	30.554433
1340.000000	30.546125
1341.000000	30.535955
1342.000000	30.524003
1343.000000	30.486385
1344.000000	30.446238
1345.000000	30.403252
1346.000000	30.359627
1347.000000	30.317762
1348.000000	30.275255
1349.000000	30.229798
1350.000000	30.182308
1351.000000	30.133113
1352.000000	30.083760
1353.000000	30.058177
1354.000000	30.035075
1355.000000	30.014895
1356.000000	29.994440
1357.000000	29.970770
1358.000000	29.945625
1359.000000	29.894932
1360.000000	29.848920
1361.000000	29.810210
1362.000000	29.771130
1363.000000	29.730483
1364.000000	29.687728
1365.000000	29.640390
1366.000000	29.562915
1367.000000	29.484805
1368.000000	29.403643
1369.000000	29.342998
1370.000000	29.272460
1371.000000	29.187555
1372.000000	29.065010
1373.000000	28.926577
1374.000000	28.769495
1375.000000	28.599440
1376.000000	28.417267
1377.000000	28.219917
1378.000000	28.010610
1379.000000	27.793273
1380.000000	27.576677
1381.000000	27.369245
1382.000000	27.174447
1383.000000	26.999778
1384.000000	26.840775
1385.000000	26.697210
1386.000000	26.598028
1387.000000	26.523450
1388.000000	26.468885
1389.000000	26.430883
1390.000000	26.401297
1391.000000	26.378633
1392.000000	26.387273
1393.000000	26.400112
1394.000000	26.424518
1395.000000	26.464753
1396.000000	26.509230
1397.000000	26.545640
1398.000000	26.579865
1399.000000	26.622395
1400.000000	26.648475
1401.000000	26.668630
1402.000000	26.679830
1403.000000	26.682140
1404.000000	26.682037
1405.000000	26.667620
1406.000000	26.647010
1407.000000	26.626017
1408.000000	26.604810
1409.000000	26.573588
1410.000000	26.553795
1411.000000	26.528345
1412.000000	26.503950
1413.000000	26.483732
1414.000000	26.434655
1415.000000	26.381340
1416.000000	26.323130
1417.000000	26.266587
1418.000000	26.211720
1419.000000	26.156965
1420.000000	26.101897
1421.000000	26.047010
1422.000000	25.995817
1423.000000	25.943473
1424.000000	25.912053
1425.000000	25.856843
1426.000000	25.805540
1427.000000	25.754102
1428.000000	25.699777
1429.000000	25.645065
1430.000000	25.592530
1431.000000	25.546997
1432.000000	25.499630
1433.000000	25.451295
1434.000000	25.405175
1435.000000	25.387023
1436.000000	25.369837
1437.000000	25.352733
1438.000000	25.338002
1439.000000	25.323225
1440.000000	25.310290
1441.000000	25.271070
1442.000000	25.232740
1443.000000	25.195015
1444.000000	25.158995
1445.000000	25.125015
1446.000000	25.091355
1447.000000	25.056458
1448.000000	25.018802
1449.000000	24.983590
1450.000000	24.951365
1451.000000	24.944408
1452.000000	24.936267
1453.000000	24.927620
1454.000000	24.918820
1455.000000	24.908285
1456.000000	24.897852
1457.000000	24.888168
1458.000000	24.879985
1459.000000	24.871245
1460.000000	24.859037
1461.000000	24.846597
1462.000000	24.835072
1463.000000	24.825180
1464.000000	24.815427
1465.000000	24.805595
1466.000000	24.796997
1467.000000	24.763122
1468.000000	24.729212
1469.000000	24.696247
1470.000000	24.664615
1471.000000	24.632932
1472.000000	24.602418
1473.000000	24.571755
1474.000000	24.538002
1475.000000	24.504080
1476.000000	24.470035
1477.000000	24.462833
1478.000000	24.454675
1479.000000	24.445730
1480.000000	24.436575
1481.000000	24.426900
1482.000000	24.416463
1483.000000	24.405728
1484.000000	24.396193
1485.000000	24.387165
1486.000000	24.377852
1487.000000	24.367472
1488.000000	24.358385
1489.000000	24.348240
1490.000000	24.337535
1491.000000	24.325978
1492.000000	24.314940
1493.000000	24.304588
1494.000000	24.295832
1495.000000	24.286967
1496.000000	24.278695
1497.000000	24.272920
1498.000000	24.267545
1499.000000	24.263292
1500.000000	24.260250
1501.000000	24.259948
1502.000000	24.261712
1503.000000	24.264632
1504.000000	24.268845
1505.000000	24.274645
1506.000000	24.281502
1507.000000	24.287847
1508.000000	24.295582
1509.000000	24.304313
1510.000000	24.313225
1511.000000	24.322790
1512.000000	24.332215
1513.000000	24.342075
1514.000000	24.352517
1515.000000	24.363225
1516.000000	24.373535
1517.000000	24.384945
1518.000000	24.397000
1519.000000	24.410103
1520.000000	24.423112
1521.000000	24.435780
1522.000000	24.448810
1523.000000	24.461660
1524.000000	24.474443
1525.000000	24.487837
1526.000000	24.501852
1527.000000	24.514445
1528.000000	24.526578
1529.000000	24.538422
1530.000000	24.550787
1531.000000	24.563025
1532.000000	24.575142
1533.000000	24.586895
1534.000000	24.598415
1535.000000	24.609230
1536.000000	24.644517
1537.000000	24.680480
1538.000000	24.715647
1539.000000	24.750522
1540.000000	24.785542
1541.000000	24.820245
1542.000000	24.854895
1543.000000	24.890540
1544.000000	24.926270
1545.000000	24.963100
1546.000000	24.975947
1547.000000	24.988768
1548.000000	25.002595
1549.000000	25.017487
1550.000000	25.032870
1551.000000	25.049535
1552.000000	25.066830
1553.000000	25.084237
1554.000000	25.101620
1555.000000	25.118383
1556.000000	25.134383
1557.000000	25.149742
1558.000000	25.165052
1559.000000	25.179243
1560.000000	25.191472
1561.000000	25.201500
1562.000000	25.209488
1563.000000	25.215647
1564.000000	25.220795
1565.000000	25.224222
1566.000000	25.225642
1567.000000	25.226008
1568.000000	25.224723
1569.000000	25.222160
1570.000000	25.219458
1571.000000	25.217840
1572.000000	25.216745
1573.000000	25.215045
1574.000000	25.213017
1575.000000	25.211533
1576.000000	25.211253
1577.000000	25.212250
1578.000000	25.214885
1579.000000	25.219015
1580.000000	25.223450
1581.000000	25.227875
1582.000000	25.232955
1583.000000	25.239820
1584.000000	25.248415
1585.000000	25.257580
1586.000000	25.267247
1587.000000	25.277423
1588.000000	25.287332
1589.000000	25.296868
1590.000000	25.307660
1591.000000	25.319175
1592.000000	25.330055
1593.000000	25.340967
1594.000000	25.376853
1595.000000	25.412867
1596.000000	25.449558
1597.000000	25.486960
1598.000000	25.524500
1599.000000	25.562413
1600.000000	25.601195
1601.000000	25.640657
1602.000000	25.680862
1603.000000	25.721120
1604.000000	25.736930
1605.000000	25.752952
1606.000000	25.768800
1607.000000	25.784723
1608.000000	25.799498
1609.000000	25.814207
1610.000000	25.827590
1611.000000	25.840332
1612.000000	25.853102
1613.000000	25.865790
1614.000000	25.876988
1615.000000	25.888275
1616.000000	25.898843
1617.000000	25.907828
1618.000000	25.916997
1619.000000	25.926275
1620.000000	25.935475
1621.000000	25.943767
1622.000000	25.952123
1623.000000	25.961127
1624.000000	25.970837
1625.000000	25.979728
1626.000000	25.989688
1627.000000	26.000502
1628.000000	26.011015
1629.000000	26.020817
1630.000000	26.055215
1631.000000	26.090330
1632.000000	26.125563
1633.000000	26.159508
1634.000000	26.192540
1635.000000	26.225227
1636.000000	26.256982
1637.000000	26.288153
1638.000000	26.319232
1639.000000	26.350100
1640.000000	26.355698
1641.000000	26.360070
1642.000000	26.363162
1643.000000	26.366165
1644.000000	26.369813
1645.000000	26.372380
1646.000000	26.374835
1647.000000	26.376173
1648.000000	26.377298
1649.000000	26.377592
1650.000000	26.377783
1651.000000	26.376385
1652.000000	26.374042
1653.000000	26.370960
1654.000000	26.365620
1655.000000	26.334210
1656.000000	26.300130
1657.000000	26.264045
1658.000000	26.226170
1659.000000	26.187050
1660.000000	26.145165
1661.000000	26.100745
1662.000000	26.053020
1663.000000	26.003298
1664.000000	25.951715
1665.000000	25.923105
1666.000000	25.893203
1667.000000	25.862973
1668.000000	25.829120
1669.000000	25.793130
1670.000000	25.731990
1671.000000	25.670630
1672.000000	25.608437
1673.000000	25.544473
1674.000000	25.479008
1675.000000	25.414458
1676.000000	25.348113
1677.000000	25.280293
1678.000000	25.213732
1679.000000	25.145873
1680.000000	25.076080
1681.000000	25.004915
1682.000000	24.933200
1683.000000	24.860342
1684.000000	24.786853
1685.000000	24.711292
1686.000000	24.636490
1687.000000	24.562383
1688.000000	24.489238
1689.000000	24.418067
1690.000000	24.373560
1691.000000	24.334028
1692.000000	24.300305
1693.000000	24.271825
1694.000000	24.247858
1695.000000	24.229440
1696.000000	24.189280
1697.000000	24.149755
1698.000000	24.111840
1699.000000	24.074900
1700.000000	24.037703
1701.000000	23.998830
1702.000000	23.957855
1703.000000	23.916085
1704.000000	23.871878
1705.000000	23.826257
1706.000000	23.804387
1707.000000	23.783803
1708.000000	23.762863
1709.000000	23.740577
1710.000000	23.718837
1711.000000	23.695473
1712.000000	23.671637
1713.000000	23.644613
1714.000000	23.616980
1715.000000	23.561062
1716.000000	23.502668
1717.000000	23.441670
1718.000000	23.379235
1719.000000	23.315922
1720.000000	23.251983
1721.000000	23.188218
1722.000000	23.124170
1723.000000	23.061260
1724.000000	23.000305
1725.000000	22.965550
1726.000000	22.933635
1727.000000	22.903888
1728.000000	22.876783
1729.000000	22.852430
1730.000000	22.830720
1731.000000	22.814322
1732.000000	22.804710
1733.000000	22.802390
1734.000000	22.808360
1735.000000	22.823473
1736.000000	22.844960
1737.000000	22.873205
1738.000000	22.906517
1739.000000	22.945628
1740.000000	22.988072
1741.000000	23.032362
1742.000000	23.100562
1743.000000	23.166180
1744.000000	23.227515
1745.000000	23.285995
1746.000000	23.342220
1747.000000	23.395302
1748.000000	23.446205
1749.000000	23.493942
1750.000000	23.539887
1751.000000	23.583545
1752.000000	23.599355
1753.000000	23.613650
1754.000000	23.625563
1755.000000	23.634053
1756.000000	23.639615
1757.000000	23.643617
1758.000000	23.645243
1759.000000	23.645455
1760.000000	23.644313
1761.000000	23.640937
1762.000000	23.636535
1763.000000	23.632562
1764.000000	23.629488
1765.000000	23.629680
1766.000000	23.634580
1767.000000	23.644268
1768.000000	23.657985
1769.000000	23.677375
1770.000000	23.700730
1771.000000	23.727340
1772.000000	23.757655
1773.000000	23.789290
1774.000000	23.822725
1775.000000	23.880310
1776.000000	23.936182
1777.000000	23.989670
1778.000000	24.040625
1779.000000	24.088493
1780.000000	24.134822
1781.000000	24.180122
1782.000000	24.223327
1783.000000	24.266008
1784.000000	24.307387
1785.000000	24.321465
1786.000000	24.333568
1787.000000	24.343575
1788.000000	24.352283
1789.000000	24.359567
1790.000000	24.366060
1791.000000	24.371153
1792.000000	24.375858
1793.000000	24.379663
1794.000000	24.383427
1795.000000	24.387498
1796.000000	24.391425
1797.000000	24.394362
1798.000000	24.396710
1799.000000	24.399432
1800.000000	24.403578
1801.000000	24.409928
1802.000000	24.416570
1803.000000	24.421720
1804.000000	24.425285
1805.000000	24.430845
1806.000000	24.438657
1807.000000	24.446600
1808.000000	24.453395
1809.000000	24.459090
1810.000000	24.463695
1811.000000	24.468295
1812.000000	24.472333
1813.000000	24.476527
1814.000000	24.482153
1815.000000	24.486142
1816.000000	24.485968
1817.000000	24.482805
1818.000000	24.479455
1819.000000	24.479970
1820.000000	24.486673
1821.000000	24.497120
1822.000000	24.505317
1823.000000	24.507680
1824.000000	24.505797
1825.000000	24.527677
1826.000000	24.553155
1827.000000	24.585435
1828.000000	24.621975
1829.000000	24.656535
1830.000000	24.686448
1831.000000	24.710462
1832.000000	24.733953
1833.000000	24.760777
1834.000000	24.789257
1835.000000	24.795517
1836.000000	24.804793
1837.000000	24.813435
1838.000000	24.820245
1839.000000	24.827255
1840.000000	24.836453
1841.000000	24.852682
1842.000000	24.872110
1843.000000	24.888148
1844.000000	24.896787
1845.000000	24.897805
1846.000000	24.898708
1847.000000	24.908370
1848.000000	24.926852
1849.000000	24.943400
1850.000000	24.948672
1851.000000	24.941207
1852.000000	24.931625
1853.000000	24.930262
1854.000000	24.939095
1855.000000	24.952690
1856.000000	24.958990
1857.000000	24.950855
1858.000000	24.935623
1859.000000	24.924305
1860.000000	24.920950
1861.000000	24.922757
1862.000000	24.922305
1863.000000	24.913072
1864.000000	24.896175
1865.000000	24.874602
1866.000000	24.851840
1867.000000	24.829390
1868.000000	24.800780
1869.000000	24.745378
1870.000000	24.693297
1871.000000	24.641533
1872.000000	24.594205
1873.000000	24.553298
1874.000000	24.514522
1875.000000	24.478867
1876.000000	24.443275
1877.000000	24.405202
1878.000000	24.338265
1879.000000	24.286205
1880.000000	24.219080
1881.000000	24.142800
1882.000000	24.059180
1883.000000	23.972012
1884.000000	23.881342
1885.000000	23.760043
1886.000000	23.631015
1887.000000	23.494207
1888.000000	23.377393
1889.000000	23.259002
1890.000000	23.140832
1891.000000	22.999817
1892.000000	22.856185
1893.000000	22.704150
1894.000000	22.545265
1895.000000	22.402997
1896.000000	22.232055
1897.000000	22.060148
1898.000000	21.890342
1899.000000	21.721825
1900.000000	21.552273
1901.000000	21.378042
1902.000000	21.201215
1903.000000	21.024560
1904.000000	20.853768
1905.000000	20.669665
1906.000000	20.516990
1907.000000	20.368077
1908.000000	20.218990
1909.000000	20.065683
1910.000000	19.910680
1911.000000	19.759700
1912.000000	19.617007
1913.000000	19.484407
1914.000000	19.354143
1915.000000	19.245605
1916.000000	19.136625
1917.000000	19.028398
1918.000000	18.897855
1919.000000	18.777107
1920.000000	18.666737
1921.000000	18.587215
1922.000000	18.509013
1923.000000	18.428683
1924.000000	18.346965
1925.000000	18.268532
1926.000000	18.198213
1927.000000	18.135730
1928.000000	18.104492
1929.000000	18.076263
1930.000000	18.048890
1931.000000	18.021282
1932.000000	17.967740
1933.000000	17.918040
1934.000000	17.873920
1935.000000	17.834318
1936.000000	17.795148
1937.000000	17.758060
1938.000000	17.725168
1939.000000	17.694025
1940.000000	17.663502
1941.000000	17.636367
1942.000000	17.638258
1943.000000	17.640918
1944.000000	17.647537
1945.000000	17.656325
1946.000000	17.667707
1947.000000	17.705655
1948.000000	17.717472
1949.000000	17.729442
1950.000000	17.743672
1951.000000	17.759025
1952.000000	17.799585
1953.000000	17.842690
1954.000000	17.887240
1955.000000	17.932515
1956.000000	17.977682
1957.000000	17.997835
1958.000000	18.044217
1959.000000	18.091040
1960.000000	18.138505
1961.000000	18.186330
1962.000000	18.210565
1963.000000	18.233888
1964.000000	18.255002
1965.000000	18.275290
1966.000000	18.296112
1967.000000	18.315823
1968.000000	18.336148
1969.000000	18.355387
1970.000000	18.374647
1971.000000	18.392650
1972.000000	18.410605
1973.000000	18.428458
1974.000000	18.447130
1975.000000	18.466842
1976.000000	18.486060
1977.000000	18.531330
1978.000000	18.575972
1979.000000	18.621500
1980.000000	18.666208
1981.000000	18.713068
1982.000000	18.759022
1983.000000	18.805100
1984.000000	18.851880
1985.000000	18.898302
1986.000000	18.944682
1987.000000	18.966595
1988.000000	18.987990
1989.000000	19.009598
1990.000000	19.032895
1991.000000	19.053165
1992.000000	19.075192
1993.000000	19.096372
1994.000000	19.117370
1995.000000	19.137322
1996.000000	19.156930
1997.000000	19.175520
1998.000000	19.193680
1999.000000	19.210875
2000.000000	19.226862
2001.000000	19.242698
2002.000000	19.256572
2003.000000	19.270240
2004.000000	19.282705
2005.000000	19.319047
2006.000000	19.353658
2007.000000	19.386770
2008.000000	19.418000
2009.000000	19.447732
2010.000000	19.475205
2011.000000	19.502075
2012.000000	19.527033
2013.000000	19.550250
2014.000000	19.571652
2015.000000	19.566858
2016.000000	19.536595
2017.000000	19.529537
2018.000000	19.521490
2019.000000	19.485875
2020.000000	19.448747
2021.000000	19.410757
2022.000000	19.371033
2023.000000	19.329642
2024.000000	19.285785
2025.000000	19.239947
2026.000000	19.217248
2027.000000	19.168108
2028.000000	19.118135
2029.000000	19.092042
2030.000000	19.064460
2031.000000	19.034777
2032.000000	19.002330
2033.000000	18.969758
2034.000000	18.936057
2035.000000	18.901740
2036.000000	18.866718
2037.000000	18.831242
2038.000000	18.792638
2039.000000	18.752665
2040.000000	18.711333
2041.000000	18.669213
2042.000000	18.602755
2043.000000	18.535105
2044.000000	18.466822
2045.000000	18.397278
2046.000000	18.327285
2047.000000	18.258177
2048.000000	18.191117
2049.000000	18.125900
2050.000000	18.062545
2051.000000	18.000173
2052.000000	17.965625
2053.000000	17.934438
2054.000000	17.908180
2055.000000	17.885665
2056.000000	17.866948
2057.000000	17.851645
2058.000000	17.841138
2059.000000	17.835500
2060.000000	17.834100
2061.000000	17.837275
2062.000000	17.844878
2063.000000	17.855738
2064.000000	17.868890
2065.000000	17.885845
2066.000000	17.905442
2067.000000	17.952423
2068.000000	18.000810
2069.000000	18.049750
2070.000000	18.100310
2071.000000	18.152275
2072.000000	18.203560
2073.000000	18.254105
2074.000000	18.304790
2075.000000	18.354492
2076.000000	18.403435
2077.000000	18.426462
2078.000000	18.448642
2079.000000	18.469507
2080.000000	18.488612
2081.000000	18.530418
2082.000000	18.569997
2083.000000	18.583818
2084.000000	18.621308
2085.000000	18.657238
2086.000000	18.666068
2087.000000	18.697660
2088.000000	18.702762
2089.000000	18.706360
2090.000000	18.708125
2091.000000	18.683912
2092.000000	18.684783
2093.000000	18.683740
2094.000000	18.656122
2095.000000	18.627605
2096.000000	18.623575
2097.000000	18.594290
2098.000000	18.614095
2099.000000	18.608350
2100.000000	18.627810
2101.000000	18.622283
2102.000000	18.615510
2103.000000	18.633757
2104.000000	18.652585
2105.000000	18.670782
2106.000000	18.663367
2107.000000	18.680613
2108.000000	18.672792
2109.000000	18.689675
2110.000000	18.680105
2111.000000	18.695335
2112.000000	18.685278
2113.000000	18.674980
2114.000000	18.663947
2115.000000	18.652687
2116.000000	18.665843
2117.000000	18.652530
2118.000000	18.638422
2119.000000	18.624137
2120.000000	18.609875
2121.000000	18.595140
2122.000000	18.580035
2123.000000	18.563718
2124.000000	18.546375
2125.000000	18.528665
2126.000000	18.510588
2127.000000	18.492188
2128.000000	18.472595
2129.000000	18.451902
2130.000000	18.431007
2131.000000	18.408053
2132.000000	18.358540
2133.000000	18.307570
2134.000000	18.279963
2135.000000	18.250895
2136.000000	18.220905
2137.000000	18.189628
2138.000000	18.157738
2139.000000	18.099605
2140.000000	18.039740
2141.000000	18.004687
2142.000000	17.993550
2143.000000	17.982030
2144.000000	17.920075
2145.000000	17.856867
2146.000000	17.792565
2147.000000	17.727890
2148.000000	17.662555
2149.000000	17.622460
2150.000000	17.581978
2151.000000	17.515062
2152.000000	17.449413
2153.000000	17.358575
2154.000000	17.292647
2155.000000	17.252568
2156.000000	17.212935
2157.000000	17.174415
2158.000000	17.111187
2159.000000	17.048882
2160.000000	16.986825
2161.000000	16.926240
2162.000000	16.866195
2163.000000	16.832587
2164.000000	16.799505
2165.000000	16.742245
2166.000000	16.686902
2167.000000	16.606475
2168.000000	16.551890
2169.000000	16.497588
2170.000000	16.445163
2171.000000	16.393340
2172.000000	16.342025
2173.000000	16.290868
2174.000000	16.239645
2175.000000	16.188858
2176.000000	16.136958
2177.000000	16.109655
2178.000000	16.081950
2179.000000	16.053505
2180.000000	16.023390
2181.000000	15.991700
2182.000000	15.932210
2183.000000	15.895090
2184.000000	15.855443
2185.000000	15.811122
2186.000000	15.738010
2187.000000	15.660010
2188.000000	15.577555
2189.000000	15.488000
2190.000000	15.416830
2191.000000	15.313495
2192.000000	15.228348
2193.000000	15.086657
2194.000000	14.937305
2195.000000	14.781095
2196.000000	14.643252
2197.000000	14.499222
2198.000000	14.349370
2199.000000	14.196080
2200.000000	13.989597
2201.000000	13.807305
2202.000000	13.624768
2203.000000	13.469742
2204.000000	13.319525
2205.000000	13.176307
2206.000000	13.039888
2207.000000	12.913577
2208.000000	12.797605
2209.000000	12.692452
2210.000000	12.601333
2211.000000	12.548568
2212.000000	12.509105
2213.000000	12.480855
2214.000000	12.466378
2215.000000	12.462408
2216.000000	12.469770
2217.000000	12.460840
2218.000000	12.486435
2219.000000	12.521542
2220.000000	12.585300
2221.000000	12.629072
2222.000000	12.676705
2223.000000	12.752902
2224.000000	12.802392
2225.000000	12.853592
2226.000000	12.904837
2227.000000	12.979060
2228.000000	13.025575
2229.000000	13.067725
2230.000000	13.133410
2231.000000	13.168553
2232.000000	13.200410
2233.000000	13.227673
2234.000000	13.277742
2235.000000	13.321625
2236.000000	13.361408
2237.000000	13.399088
2238.000000	13.431565
2239.000000	13.460745
2240.000000	13.460930
2241.000000	13.484265
2242.000000	13.478772
2243.000000	13.471892
2244.000000	13.436985
2245.000000	13.427093
2246.000000	13.390455
2247.000000	13.377388
2248.000000	13.365090
2249.000000	13.351947
2250.000000	13.338832
2251.000000	13.326870
2252.000000	13.340937
2253.000000	13.330697
2254.000000	13.321165
2255.000000	13.287760
2256.000000	13.305505
2257.000000	13.299713
2258.000000	13.295510
2259.000000	13.293735
2260.000000	13.293068
2261.000000	13.294100
2262.000000	13.296288
2263.000000	13.300757
2264.000000	13.332495
2265.000000	13.364625
2266.000000	13.373885
2267.000000	13.384880
2268.000000	13.396857
2269.000000	13.410135
2270.000000	13.451200
2271.000000	13.491418
2272.000000	13.534010
2273.000000	13.575905
2274.000000	13.618255
2275.000000	13.661635
2276.000000	13.704773
2277.000000	13.748315
2278.000000	13.791085
2279.000000	13.834307
2280.000000	13.851612
2281.000000	13.869040
2282.000000	13.885570
2283.000000	13.902860
2284.000000	13.919757
2285.000000	13.936652
2286.000000	13.953495
2287.000000	13.993977
2288.000000	14.034085
2289.000000	14.074132
2290.000000	14.113735
2291.000000	14.128723
2292.000000	14.167883
2293.000000	14.205795
2294.000000	14.243773
2295.000000	14.281543
2296.000000	14.293547
2297.000000	14.305733
2298.000000	14.318715
2299.000000	14.305337
2300.000000	14.291415
2301.000000	14.326515
2302.000000	14.337970
2303.000000	14.373663
2304.000000	14.384985
2305.000000	14.395578
2306.000000	14.430725
2307.000000	14.441880
2308.000000	14.453040
2309.000000	14.489875
2310.000000	14.528733
2311.000000	14.545035
2312.000000	14.561987
2313.000000	14.556588
2314.000000	14.577675
2315.000000	14.625490
2316.000000	14.676400
2317.000000	14.728555
2318.000000	14.781887
2319.000000	14.836835
2320.000000	14.891148
2321.000000	14.943880
2322.000000	14.996688
2323.000000	15.048775
2324.000000	15.098940
2325.000000	15.122120
2326.000000	15.142777
2327.000000	15.160678
2328.000000	15.201423
2329.000000	15.239078
2330.000000	15.249615
2331.000000	15.259510
2332.000000	15.266345
2333.000000	15.295318
2334.000000	15.322770
2335.000000	15.350165
2336.000000	15.376152
2337.000000	15.400857
2338.000000	15.399503
2339.000000	15.397263
2340.000000	15.419640
2341.000000	15.441640
2342.000000	15.462943
2343.000000	15.459250
2344.000000	15.455435
2345.000000	15.475608
2346.000000	15.496622
2347.000000	15.518693
2348.000000	15.541262
2349.000000	15.566322
2350.000000	15.592253
2351.000000	15.617752
2352.000000	15.671110
2353.000000	15.726750
2354.000000	15.783640
2355.000000	15.817245
2356.000000	15.827023
2357.000000	15.837448
2358.000000	15.848653
2359.000000	15.858820
2360.000000	15.869608
2361.000000	15.881490
2362.000000	15.866747
2363.000000	15.851292
2364.000000	15.835733
2365.000000	15.819630
2366.000000	15.826612
2367.000000	15.857290
2368.000000	15.888090
2369.000000	15.918325
2370.000000	15.922225
2371.000000	15.925675
2372.000000	15.929360
2373.000000	15.932055
2374.000000	15.959040
2375.000000	15.960322
2376.000000	15.961787
2377.000000	15.963305
2378.000000	15.963403
2379.000000	15.963175
2380.000000	15.988397
2381.000000	16.012745
2382.000000	16.010300
2383.000000	16.007885
2384.000000	16.005203
2385.000000	16.026578
2386.000000	16.046962
2387.000000	16.066458
2388.000000	16.085942
2389.000000	16.080575
2390.000000	16.074400
2391.000000	16.092345
2392.000000	16.110820
2393.000000	16.128887
2394.000000	16.121263
2395.000000	16.113345
2396.000000	16.104865
2397.000000	16.071213
2398.000000	16.037260
2399.000000	16.052672
2400.000000	16.067987
2401.000000	16.058520
2402.000000	16.072163
2403.000000	16.059395
2404.000000	16.071497
2405.000000	16.083920
2406.000000	16.119932
2407.000000	16.130137
2408.000000	16.140310
2409.000000	16.123942
2410.000000	16.106045
2411.000000	16.061940
2412.000000	16.042803
2413.000000	16.048860
2414.000000	16.029547
2415.000000	16.008870
2416.000000	15.963343
2417.000000	15.917305
2418.000000	15.868598
2419.000000	15.819490
2420.000000	15.793175
2421.000000	15.791213
2422.000000	15.763923
2423.000000	15.709270
2424.000000	15.676845
2425.000000	15.618583
2426.000000	15.559565
2427.000000	15.550622
2428.000000	15.542257
2429.000000	15.559235
2430.000000	15.527690
2431.000000	15.471125
2432.000000	15.439457
2433.000000	15.433888
2434.000000	15.404420
2435.000000	15.400480
2436.000000	15.396315
2437.000000	15.391327
2438.000000	15.386182
2439.000000	15.380995
2440.000000	15.375608
2441.000000	15.394777
2442.000000	15.388640
2443.000000	15.381970
2444.000000	15.374885
2445.000000	15.367470
2446.000000	15.360280
2447.000000	15.328787
2448.000000	15.297255
2449.000000	15.265090
2450.000000	15.233840
2451.000000	15.227195
2452.000000	15.246402
2453.000000	15.265543
2454.000000	15.285368
2455.000000	15.306318
2456.000000	15.328442
2457.000000	15.374785
2458.000000	15.421035
2459.000000	15.417322
2460.000000	15.463162
2461.000000	15.486075
2462.000000	15.509070
2463.000000	15.558273
2464.000000	15.557820
2465.000000	15.606642
2466.000000	15.656250
2467.000000	15.657032
2468.000000	15.710080
2469.000000	15.764017
2470.000000	15.816825
2471.000000	15.921868
2472.000000	16.001755
2473.000000	16.033143
2474.000000	16.167450
2475.000000	16.202560
2476.000000	16.236263
2477.000000	16.370445
2478.000000	16.506262
2479.000000	16.666615
2480.000000	16.781457
2481.000000	16.943650
2482.000000	17.104720
2483.000000	17.243032
2484.000000	17.356885
2485.000000	17.618515
2486.000000	17.808677
2487.000000	17.900007
2488.000000	18.014755
2489.000000	18.180927
2490.000000	18.320618
2491.000000	18.387910
2492.000000	18.477715
2493.000000	18.672997
2494.000000	18.865030
2495.000000	19.013635
2496.000000	19.261418
2497.000000	19.528403
2498.000000	19.742255
2499.000000	19.912015
2500.000000	20.131093
2501.000000	23.344930
2502.000000	27.039948
2503.000000	30.377963
2504.000000	33.593220
2505.000000	36.955822
2506.000000	40.293580
2507.000000	43.837865
2508.000000	47.961345
2509.000000	51.979945
2510.000000	55.900000
2511.000000	56.700000
2512.000000	57.000000
2513.000000	57.900000
2514.000000	58.700000
2515.000000	59.600000
2516.000000	60.800000
2517.000000	62.100000
2518.000000	62.700000
2519.000000	63.600000
2520.000000	64.800000
2521.000000	66.300000
2522.000000	67.500000
2523.000000	68.400000
2524.000000	69.300000
2525.000000	70.100000
2526.000000	71.100000
2527.000000	71.500000
2528.000000	72.200000
2529.000000	73.100000
2530.000000	73.600000
2531.000000	74.100000
2532.000000	75.200000
2533.000000	76.400000
2534.000000	77.500000
2535.000000	78.500000
2536.000000	79.100000
2537.000000	80.100000
2538.000000	81.400000
2539.000000	82.000000
2540.000000	83.100000
2541.000000	84.100000
2542.000000	84.700000
2543.000000	84.900000
2544.000000	85.300000
2545.000000	86.400000
2546.000000	87.100000
2547.000000	87.900000
2548.000000	88.200000
2549.000000	88.600000
2550.000000	89.000000
2551.000000	88.900000
2552.000000	89.100000
2553.000000	89.900000
2554.000000	89.900000
2555.000000	89.200000
2556.000000	89.200000
2557.000000	89.100000
2558.000000	88.900000
2559.000000	89.000000
2560.000000	88.800000
2561.000000	88.800000
2562.000000	89.100000
2563.000000	88.900000
2564.000000	89.500000
2565.000000	90.100000
2566.000000	90.300000
2567.000000	91.000000
2568.000000	91.900000
2569.000000	92.300000
2570.000000	92.400000
2571.000000	93.400000
2572.000000	93.200000
2573.000000	93.300000
2574.000000	93.700000
2575.000000	94.000000
2576.000000	94.300000
2577.000000	93.900000
2578.000000	93.400000
2579.000000	93.800000
2580.000000	94.500000
2581.000000	94.100000
2582.000000	94.400000
2583.000000	94.600000
2584.000000	94.400000
2585.000000	93.900000
2586.000000	94.100000
2587.000000	94.500000
2588.000000	94.800000
2589.000000	94.700000
2590.000000	94.300000
2591.000000	94.000000
2592.000000	93.800000
2593.000000	93.700000
2594.000000	93.700000
2595.000000	94.000000
2596.000000	93.600000
2597.000000	92.900000
2598.000000	92.100000
2599.000000	91.300000
2600.000000	91.100000
2601.000000	91.900000
2602.000000	92.400000
2603.000000	92.000000
2604.000000	92.000000
2605.000000	92.500000
2606.000000	93.300000
2607.000000	94.200000
2608.000000	95.400000
2609.000000	96.100000
2610.000000	96.200000
2611.000000	95.800000
2612.000000	95.500000
2613.000000	96.000000
2614.000000	96.500000
2615.000000	96.800000
2616.000000	96.500000
2617.000000	96.100000
2618.000000	95.200000
2619.000000	94.600000
2620.000000	95.000000
2621.000000	95.500000
2622.000000	95.700000
2623.000000	95.500000
2624.000000	95.000000
2625.000000	93.900000
2626.000000	93.600000
2627.000000	93.400000
2628.000000	92.900000
2629.000000	92.700000
2630.000000	92.300000
2631.000000	91.800000
2632.000000	91.600000
2633.000000	92.100000
2634.000000	92.300000
2635.000000	92.800000
2636.000000	92.600000
2637.000000	92.200000
2638.000000	92.700000
2639.000000	93.500000
2640.000000	93.600000
2641.000000	93.800000
2642.000000	94.100000
2643.000000	93.500000
2644.000000	93.300000
2645.000000	93.300000
2646.000000	93.500000
2647.000000	93.900000
2648.000000	94.400000
2649.000000	94.300000
2650.000000	94.300000
2651.000000	94.200000
2652.000000	93.600000
2653.000000	94.000000
2654.000000	94.700000
2655.000000	94.700000
2656.000000	94.200000
2657.000000	93.900000
2658.000000	93.500000
2659.000000	93.700000
2660.000000	94.000000
2661.000000	93.400000
2662.000000	93.400000
2663.000000	93.400000
2664.000000	92.800000
2665.000000	92.800000
2666.000000	93.600000
2667.000000	94.200000
2668.000000	94.500000
2669.000000	94.500000
2670.000000	94.400000
2671.000000	95.200000
2672.000000	95.800000
2673.000000	95.800000
2674.000000	96.400000
2675.000000	96.300000
2676.000000	96.200000
2677.000000	96.000000
2678.000000	96.100000
2679.000000	96.500000
2680.000000	96.200000
2681.000000	96.700000
2682.000000	97.600000
2683.000000	97.800000
2684.000000	97.600000
2685.000000	98.100000
2686.000000	98.300000
2687.000000	98.700000
2688.000000	98.800000
2689.000000	98.400000
2690.000000	98.700000
2691.000000	98.100000
2692.000000	97.200000
2693.000000	96.500000
2694.000000	96.500000
2695.000000	96.000000
2696.000000	97.000000
2697.000000	97.200000
2698.000000	96.800000
2699.000000	97.100000
2700.000000	97.600000
2701.000000	97.000000
2702.000000	96.600000
2703.000000	97.000000
2704.000000	96.500000
2705.000000	96.400000
2706.000000	95.200000
2707.000000	93.900000
2708.000000	94.700000
2709.000000	95.000000
2710.000000	94.500000
2711.000000	94.400000
2712.000000	94.600000
2713.000000	94.800000
2714.000000	94.400000
2715.000000	94.500000
2716.000000	94.300000
2717.000000	95.200000
2718.000000	94.300000
2719.000000	93.400000
2720.000000	94.200000
2721.000000	95.100000
2722.000000	95.300000
2723.000000	95.400000
2724.000000	96.100000
2725.000000	96.700000
2726.000000	96.100000
2727.000000	96.000000
2728.000000	96.300000
2729.000000	95.700000
2730.000000	95.200000
2731.000000	94.800000
2732.000000	93.800000
2733.000000	93.900000
2734.000000	94.300000
2735.000000	94.800000
2736.000000	95.200000
2737.000000	95.100000
2738.000000	94.600000
2739.000000	94.800000
2740.000000	95.000000
2741.000000	94.700000
2742.000000	94.600000
2743.000000	94.500000
2744.000000	94.700000
2745.000000	93.500000
2746.000000	93.600000
2747.000000	93.400000
2748.000000	94.800000
2749.000000	95.800000
2750.000000	94.900000
2751.000000	95.900000
2752.000000	96.500000
2753.000000	96.500000
2754.000000	96.400000
2755.000000	96.200000
2756.000000	97.300000
2757.000000	98.200000
2758.000000	97.400000
2759.000000	97.300000
2760.000000	97.600000
2761.000000	96.800000
2762.000000	98.200000
2763.000000	98.100000
2764.000000	97.600000
2765.000000	98.900000
2766.000000	97.900000
2767.000000	98.100000
2768.000000	98.500000
2769.000000	97.900000
2770.000000	97.600000
2771.000000	98.100000
2772.000000	96.900000
2773.000000	97.400000
2774.000000	98.000000
2775.000000	97.600000
2776.000000	98.500000
2777.000000	98.700000
2778.000000	98.500000
2779.000000	99.400000
2780.000000	100.600000
2781.000000	100.400000
2782.000000	101.100000
2783.000000	101.600000
2784.000000	101.700000
2785.000000	101.600000
2786.000000	101.300000
2787.000000	100.600000
2788.000000	100.300000
2789.000000	100.300000
2790.000000	100.900000
2791.000000	101.300000
2792.000000	101.300000
2793.000000	100.400000
2794.000000	100.500000
2795.000000	100.700000
2796.000000	101.400000
2797.000000	101.700000
2798.000000	102.500000
2799.000000	102.600000
2800.000000	101.800000
2801.000000	102.900000
2802.000000	103.600000
2803.000000	104.600000
2804.000000	104.900000
2805.000000	105.900000
2806.000000	106.300000
2807.000000	106.000000
2808.000000	106.500000
2809.000000	106.900000
2810.000000	107.100000
2811.000000	106.300000
2812.000000	105.600000
2813.000000	105.400000
2814.000000	105.100000
2815.000000	104.700000
2816.000000	103.900000
2817.000000	104.900000
2818.000000	104.200000
2819.000000	103.400000
2820.000000	102.800000
2821.000000	103.000000
2822.000000	103.300000
2823.000000	102.900000
2824.000000	103.000000
2825.000000	102.700000
2826.000000	102.500000
2827.000000	102.200000
2828.000000	102.200000
2829.000000	102.500000
2830.000000	103.400000
2831.000000	103.700000
2832.000000	103.800000
2833.000000	103.700000
2834.000000	104.100000
2835.000000	104.400000
2836.000000	105.100000
2837.000000	105.000000
2838.000000	104.500000
2839.000000	104.400000
2840.000000	104.100000
2841.000000	103.300000
2842.000000	102.200000
2843.000000	102.100000
2844.000000	101.300000
2845.000000	100.500000
2846.000000	99.500000
2847.000000	98.700000
2848.000000	98.800000
2849.000000	98.200000
2850.000000	97.700000
2851.000000	97.500000
2852.000000	97.700000
2853.000000	97.600000
2854.000000	97.700000
2855.000000	97.400000
2856.000000	96.800000
2857.000000	96.600000
2858.000000	96.300000
2859.000000	96.200000
2860.000000	95.800000
2861.000000	95.000000
2862.000000	94.900000
2863.000000	94.700000
2864.000000	93.800000
2865.000000	93.400000
2866.000000	93.800000
2867.000000	93.900000
2868.000000	93.600000
2869.000000	93.100000
2870.000000	93.000000
2871.000000	93.600000
2872.000000	93.000000
2873.000000	92.200000
2874.000000	92.000000
2875.000000	92.500000
2876.000000	92.500000
2877.000000	92.600000
2878.000000	93.000000
2879.000000	93.400000
2880.000000	93.800000
2881.000000	93.700000
2882.000000	94.100000
2883.000000	94.700000
2884.000000	95.100000
2885.000000	94.800000
2886.000000	94.900000
2887.000000	94.700000
2888.000000	94.400000
2889.000000	94.800000
2890.000000	95.000000
2891.000000	95.500000
2892.000000	96.200000
2893.000000	96.500000
2894.000000	96.800000
2895.000000	97.100000
2896.000000	97.000000
2897.000000	97.000000
2898.000000	97.000000
2899.000000	97.000000
2900.000000	96.300000
2901.000000	95.400000
2902.000000	94.900000
2903.000000	94.800000
2904.000000	94.900000
2905.000000	95.500000
2906.000000	96.300000
2907.000000	97.100000
2908.000000	97.900000
2909.000000	98.500000
2910.000000	99.500000
2911.000000	100.200000
2912.000000	100.300000
2913.000000	100.100000
2914.000000	99.800000
2915.000000	100.100000
2916.000000	100.200000
2917.000000	99.900000
2918.000000	100.100000
2919.000000	100.400000
2920.000000	100.800000
2921.000000	101.500000
2922.000000	102.400000
2923.000000	104.400000
2924.000000	105.300000
2925.000000	105.500000
2926.000000	105.100000
2927.000000	105.600000
2928.000000	105.800000
2929.000000	105.700000
2930.000000	105.900000
2931.000000	105.900000
2932.000000	105.700000
2933.000000	104.300000
2934.000000	105.100000
2935.000000	105.100000
2936.000000	105.400000
2937.000000	105.200000
2938.000000	105.500000
2939.000000	105.300000
2940.000000	105.000000
2941.000000	105.200000
2942.000000	106.300000
2943.000000	106.900000
2944.000000	106.000000
2945.000000	105.500000
2946.000000	105.300000
2947.000000	105.600000
2948.000000	104.800000
2949.000000	104.100000
2950.000000	103.200000
2951.000000	102.900000
2952.000000	101.500000
2953.000000	100.500000
2954.000000	99.500000
2955.000000	99.300000
2956.000000	98.900000
2957.000000	97.800000
2958.000000	98.200000
2959.000000	99.200000
2960.000000	99.200000
2961.000000	98.600000
2962.000000	98.300000
2963.000000	97.800000
2964.000000	98.200000
2965.000000	97.600000
2966.000000	97.700000
2967.000000	98.400000
2968.000000	97.000000
2969.000000	96.900000
2970.000000	96.500000
2971.000000	96.200000
2972.000000	96.800000
2973.000000	97.300000
2974.000000	96.800000
2975.000000	96.400000
2976.000000	96.100000
2977.000000	95.100000
2978.000000	96.100000
2979.000000	95.200000
2980.000000	95.200000
2981.000000	95.500000
2982.000000	94.300000
2983.000000	94.500000
2984.000000	94.700000
2985.000000	95.000000
2986.000000	94.600000
2987.000000	95.300000
2988.000000	95.100000
2989.000000	95.200000
2990.000000	95.500000
2991.000000	95.900000
2992.000000	96.300000
2993.000000	95.500000
2994.000000	95.600000
2995.000000	96.400000
2996.000000	96.200000
2997.000000	95.600000
2998.000000	95.400000
2999.000000	94.900000
3000.000000	94.700000
