PE UV       SUBTECH     SPECTRUM    ASCII       PEDS        4.00        
   -1
CICIMAUCR0021-1.Sample.ASC
24/03/08
13:20:54.00
24/03/08
13:20:54.00
Vinicio Soto Monge
C. resplendens. 
250,000000
1
Lambda 1050
1050L1511233
PerkinElmer UV WinLab 6.3.2.0749 / 2.02.05 Lambda 900 UV/VIS/NIR, Aug  7 2015 09:38:08

0
0
3350/servo 860,8/2
0
0
UV/VIS
1
1
1
DoubleDePol,CommonBeamDepol,RBeamAtt,SBeamAtt,60mm sphere, WB InGaAs Detector
0
0
0
0
Program
Program
3350/servo 860,8/2
3350/0,2 860,8/0,2
3350/0,2 860,8/0,2
0
15.00
 
 
 
0
 
860,8
319,2
860,8
Front
100
on
S:100 R:100
0
0
0
0
 
0
 
 
 
0
 
 
0
0
0
0
0
 
 
 
 
0
0


0
0
#HDR
-1
-1
#GR
nm
%R
1.0
0.0
2500,000000
-1,000000
2251
8
31,927300
2,181000
#DATA
2500.000000	2.532267
2499.000000	2.445440
2498.000000	2.367210
2497.000000	2.564934
2496.000000	2.527431
2495.000000	2.546989
2494.000000	2.534846
2493.000000	2.455541
2492.000000	2.355927
2491.000000	2.396546
2490.000000	2.358398
2489.000000	2.407400
2488.000000	2.422659
2487.000000	2.415781
2486.000000	2.429751
2485.000000	2.357216
2484.000000	2.364524
2483.000000	2.361945
2482.000000	2.356572
2481.000000	2.389347
2480.000000	2.343677
2479.000000	2.391066
2478.000000	2.358076
2477.000000	2.405465
2476.000000	2.344214
2475.000000	2.357969
2474.000000	2.352703
2473.000000	2.425130
2472.000000	2.354208
2471.000000	2.360655
2470.000000	2.395687
2469.000000	2.378816
2468.000000	2.403316
2467.000000	2.425345
2466.000000	2.351414
2465.000000	2.381072
2464.000000	2.399878
2463.000000	2.429644
2462.000000	2.459947
2461.000000	2.439207
2460.000000	2.458765
2459.000000	2.471660
2458.000000	2.482621
2457.000000	2.501104
2456.000000	2.502608
2455.000000	2.515933
2454.000000	2.535061
2453.000000	2.534094
2452.000000	2.570844
2451.000000	2.587178
2450.000000	2.644131
2449.000000	2.665838
2448.000000	2.669169
2447.000000	2.696141
2446.000000	2.705920
2445.000000	2.723651
2444.000000	2.762658
2443.000000	2.780174
2442.000000	2.803493
2441.000000	2.796293
2440.000000	2.829283
2439.000000	2.852924
2438.000000	2.880863
2437.000000	2.908158
2436.000000	2.910522
2435.000000	2.943619
2434.000000	2.952431
2433.000000	2.970699
2432.000000	3.006053
2431.000000	3.016906
2430.000000	3.026040
2429.000000	3.033455
2428.000000	3.056236
2427.000000	3.068916
2426.000000	3.086862
2425.000000	3.105345
2424.000000	3.138549
2423.000000	3.179814
2422.000000	3.226773
2421.000000	3.230964
2420.000000	3.271906
2419.000000	3.283081
2418.000000	3.295439
2417.000000	3.301457
2416.000000	3.314352
2415.000000	3.332727
2414.000000	3.350673
2413.000000	3.386134
2412.000000	3.399137
2411.000000	3.426646
2410.000000	3.419017
2409.000000	3.415041
2408.000000	3.457595
2407.000000	3.483277
2406.000000	3.473713
2405.000000	3.488972
2404.000000	3.509282
2403.000000	3.512291
2402.000000	3.535932
2401.000000	3.568599
2400.000000	3.560325
2399.000000	3.578701
2398.000000	3.594605
2397.000000	3.605028
2396.000000	3.615022
2395.000000	3.652202
2394.000000	3.681969
2393.000000	3.689491
2392.000000	3.699807
2391.000000	3.695723
2390.000000	3.710875
2389.000000	3.724307
2388.000000	3.739137
2387.000000	3.755900
2386.000000	3.762670
2385.000000	3.752999
2384.000000	3.768365
2383.000000	3.772556
2382.000000	3.767506
2381.000000	3.766968
2380.000000	3.779434
2379.000000	3.799099
2378.000000	3.791039
2377.000000	3.760951
2376.000000	3.755470
2375.000000	3.770729
2374.000000	3.755578
2373.000000	3.746551
2372.000000	3.762885
2371.000000	3.764174
2370.000000	3.745477
2369.000000	3.726242
2368.000000	3.717537
2367.000000	3.703998
2366.000000	3.697335
2365.000000	3.695508
2364.000000	3.664453
2363.000000	3.632323
2362.000000	3.606210
2361.000000	3.600515
2360.000000	3.583106
2359.000000	3.548505
2358.000000	3.533998
2357.000000	3.524219
2356.000000	3.507026
2355.000000	3.491766
2354.000000	3.468878
2353.000000	3.473821
2352.000000	3.474788
2351.000000	3.466943
2350.000000	3.481021
2349.000000	3.497462
2348.000000	3.518954
2347.000000	3.518416
2346.000000	3.527658
2345.000000	3.555167
2344.000000	3.580742
2343.000000	3.604813
2342.000000	3.601912
2341.000000	3.624586
2340.000000	3.655534
2339.000000	3.673049
2338.000000	3.686697
2337.000000	3.675199
2336.000000	3.670793
2335.000000	3.666065
2334.000000	3.658972
2333.000000	3.648979
2332.000000	3.647367
2331.000000	3.634472
2330.000000	3.618138
2329.000000	3.586867
2328.000000	3.585578
2327.000000	3.574940
2326.000000	3.525186
2325.000000	3.497139
2324.000000	3.489080
2323.000000	3.445774
2322.000000	3.409560
2321.000000	3.375389
2320.000000	3.348201
2319.000000	3.304573
2318.000000	3.262019
2317.000000	3.254068
2316.000000	3.217102
2315.000000	3.163695
2314.000000	3.119851
2313.000000	3.092342
2312.000000	3.049573
2311.000000	3.019485
2310.000000	3.002721
2309.000000	2.995414
2308.000000	2.985528
2307.000000	2.958771
2306.000000	2.956514
2305.000000	2.945338
2304.000000	2.959201
2303.000000	2.980477
2302.000000	2.998745
2301.000000	3.012608
2300.000000	3.032058
2299.000000	3.056343
2298.000000	3.077298
2297.000000	3.115446
2296.000000	3.122753
2295.000000	3.141881
2294.000000	3.153486
2293.000000	3.185724
2292.000000	3.202272
2291.000000	3.205174
2290.000000	3.205711
2289.000000	3.193568
2288.000000	3.188303
2287.000000	3.180351
2286.000000	3.157784
2285.000000	3.130920
2284.000000	3.135218
2283.000000	3.105882
2282.000000	3.089870
2281.000000	3.061286
2280.000000	3.046457
2279.000000	3.020237
2278.000000	2.985206
2277.000000	2.974782
2276.000000	2.976179
2275.000000	2.932121
2274.000000	2.908695
2273.000000	2.912563
2272.000000	2.903967
2271.000000	2.903644
2270.000000	2.899561
2269.000000	2.905364
2268.000000	2.915142
2267.000000	2.901065
2266.000000	2.927823
2265.000000	2.955332
2264.000000	2.981445
2263.000000	3.021312
2262.000000	3.056988
2261.000000	3.116413
2260.000000	3.173796
2259.000000	3.248372
2258.000000	3.307152
2257.000000	3.368726
2256.000000	3.416008
2255.000000	3.498429
2254.000000	3.563871
2253.000000	3.628884
2252.000000	3.681861
2251.000000	3.758909
2250.000000	3.817582
2249.000000	3.871633
2248.000000	3.939870
2247.000000	3.957385
2246.000000	4.025622
2245.000000	4.075912
2244.000000	4.092676
2243.000000	4.116210
2242.000000	4.171551
2241.000000	4.232910
2240.000000	4.246127
2239.000000	4.288788
2238.000000	4.297815
2237.000000	4.326077
2236.000000	4.347139
2235.000000	4.384104
2234.000000	4.389155
2233.000000	4.400116
2232.000000	4.424939
2231.000000	4.421607
2230.000000	4.439016
2229.000000	4.431386
2228.000000	4.430956
2227.000000	4.425369
2226.000000	4.402910
2225.000000	4.409680
2224.000000	4.366803
2223.000000	4.337575
2222.000000	4.312752
2221.000000	4.285242
2220.000000	4.274926
2219.000000	4.271273
2218.000000	4.228934
2217.000000	4.214534
2216.000000	4.153068
2215.000000	4.157366
2214.000000	4.125881
2213.000000	4.119863
2212.000000	4.115027
2211.000000	4.109547
2210.000000	4.117929
2209.000000	4.123517
2208.000000	4.143934
2207.000000	4.158871
2206.000000	4.186917
2205.000000	4.223346
2204.000000	4.270735
2203.000000	4.318554
2202.000000	4.388940
2201.000000	4.426013
2200.000000	4.489414
2199.000000	4.548731
2198.000000	4.613636
2197.000000	4.704117
2196.000000	4.741405
2195.000000	4.801904
2194.000000	4.886367
2193.000000	4.952669
2192.000000	5.001025
2191.000000	5.049167
2190.000000	5.091828
2189.000000	5.144590
2188.000000	5.183168
2187.000000	5.201329
2186.000000	5.232921
2185.000000	5.254628
2184.000000	5.298901
2183.000000	5.323294
2182.000000	5.318244
2181.000000	5.341777
2180.000000	5.338339
2179.000000	5.341025
2178.000000	5.358863
2177.000000	5.380462
2176.000000	5.406253
2175.000000	5.399483
2174.000000	5.404426
2173.000000	5.415387
2172.000000	5.443111
2171.000000	5.445045
2170.000000	5.454179
2169.000000	5.459445
2168.000000	5.457403
2167.000000	5.491897
2166.000000	5.504577
2165.000000	5.507264
2164.000000	5.525317
2163.000000	5.538534
2162.000000	5.564217
2161.000000	5.554653
2160.000000	5.579261
2159.000000	5.593661
2158.000000	5.617839
2157.000000	5.616872
2156.000000	5.627510
2155.000000	5.648787
2154.000000	5.672106
2153.000000	5.689192
2152.000000	5.705525
2151.000000	5.745070
2150.000000	5.749368
2149.000000	5.764413
2148.000000	5.779564
2147.000000	5.807504
2146.000000	5.830070
2145.000000	5.844899
2144.000000	5.851777
2143.000000	5.873376
2142.000000	5.880361
2141.000000	5.907655
2140.000000	5.921517
2139.000000	5.931511
2138.000000	5.937206
2137.000000	5.954292
2136.000000	5.967187
2135.000000	5.975892
2134.000000	5.967510
2133.000000	5.974495
2132.000000	5.992763
2131.000000	5.997813
2130.000000	6.002434
2129.000000	6.010708
2128.000000	6.015329
2127.000000	6.013072
2126.000000	6.011998
2125.000000	6.015436
2124.000000	6.015651
2123.000000	6.018660
2122.000000	6.010601
2121.000000	5.999855
2120.000000	6.002112
2119.000000	6.008667
2118.000000	6.015866
2117.000000	6.000607
2116.000000	5.971271
2115.000000	5.966113
2114.000000	5.969229
2113.000000	5.966865
2112.000000	5.959128
2111.000000	5.949779
2110.000000	5.938496
2109.000000	5.930651
2108.000000	5.932371
2107.000000	5.917756
2106.000000	5.896372
2105.000000	5.901315
2104.000000	5.898521
2103.000000	5.890247
2102.000000	5.881865
2101.000000	5.864994
2100.000000	5.861448
2099.000000	5.855968
2098.000000	5.846081
2097.000000	5.846189
2096.000000	5.849950
2095.000000	5.847049
2094.000000	5.827061
2093.000000	5.801164
2092.000000	5.796221
2091.000000	5.809223
2090.000000	5.803528
2089.000000	5.798047
2088.000000	5.796865
2087.000000	5.788591
2086.000000	5.777630
2085.000000	5.779457
2084.000000	5.787946
2083.000000	5.776878
2082.000000	5.774836
2081.000000	5.780961
2080.000000	5.773332
2079.000000	5.757213
2078.000000	5.760329
2077.000000	5.745285
2076.000000	5.726910
2075.000000	5.729489
2074.000000	5.729059
2073.000000	5.731745
2072.000000	5.720677
2071.000000	5.710683
2070.000000	5.697788
2069.000000	5.702087
2068.000000	5.700475
2067.000000	5.691233
2066.000000	5.677586
2065.000000	5.686613
2064.000000	5.684463
2063.000000	5.681455
2062.000000	5.688869
2061.000000	5.676834
2060.000000	5.672428
2059.000000	5.686935
2058.000000	5.703269
2057.000000	5.717238
2056.000000	5.727984
2055.000000	5.746897
2054.000000	5.769678
2053.000000	5.797080
2052.000000	5.826954
2051.000000	5.874451
2050.000000	5.891322
2049.000000	5.932371
2048.000000	5.996846
2047.000000	6.035101
2046.000000	6.096890
2045.000000	6.165771
2044.000000	6.230784
2043.000000	6.277958
2042.000000	6.346732
2041.000000	6.412174
2040.000000	6.472136
2039.000000	6.537364
2038.000000	6.596789
2037.000000	6.651163
2036.000000	6.704032
2035.000000	6.769475
2034.000000	6.818046
2033.000000	6.869304
2032.000000	6.928084
2031.000000	6.984715
2030.000000	7.026946
2029.000000	7.078097
2028.000000	7.127743
2027.000000	7.168362
2026.000000	7.195334
2025.000000	7.233912
2024.000000	7.289790
2023.000000	7.317622
2022.000000	7.362433
2021.000000	7.406276
2020.000000	7.431421
2019.000000	7.466990
2018.000000	7.491061
2017.000000	7.532110
2016.000000	7.553602
2015.000000	7.580681
2014.000000	7.604215
2013.000000	7.653001
2012.000000	7.651819
2011.000000	7.684057
2010.000000	7.682015
2009.000000	7.687495
2008.000000	7.728222
2007.000000	7.727148
2006.000000	7.733918
2005.000000	7.749499
2004.000000	7.763684
2003.000000	7.733488
2002.000000	7.741655
2001.000000	7.724676
2000.000000	7.729727
1999.000000	7.711889
1998.000000	7.719626
1997.000000	7.710922
1996.000000	7.692546
1995.000000	7.659234
1994.000000	7.658911
1993.000000	7.643437
1992.000000	7.613134
1991.000000	7.587989
1990.000000	7.593469
1989.000000	7.548766
1988.000000	7.525448
1987.000000	7.505353
1986.000000	7.473545
1985.000000	7.443134
1984.000000	7.413583
1983.000000	7.368020
1982.000000	7.368343
1981.000000	7.345024
1980.000000	7.312357
1979.000000	7.303975
1978.000000	7.241112
1977.000000	7.193615
1976.000000	7.172660
1975.000000	7.142787
1974.000000	7.134835
1973.000000	7.098191
1972.000000	7.072724
1971.000000	7.051554
1970.000000	7.016200
1969.000000	7.000726
1968.000000	6.939475
1967.000000	6.946245
1966.000000	6.915082
1965.000000	6.869841
1964.000000	6.856194
1963.000000	6.835777
1962.000000	6.795695
1961.000000	6.768830
1960.000000	6.748520
1959.000000	6.706074
1958.000000	6.660942
1957.000000	6.679962
1956.000000	6.618818
1955.000000	6.613337
1954.000000	6.584861
1953.000000	6.543489
1952.000000	6.537149
1951.000000	6.524791
1950.000000	6.467838
1949.000000	6.448925
1948.000000	6.452364
1947.000000	6.428078
1946.000000	6.422920
1945.000000	6.401751
1944.000000	6.376498
1943.000000	6.377143
1942.000000	6.364893
1941.000000	6.392617
1940.000000	6.372952
1939.000000	6.345228
1938.000000	6.356403
1937.000000	6.366397
1936.000000	6.379077
1935.000000	6.373597
1934.000000	6.393369
1933.000000	6.435385
1932.000000	6.477294
1931.000000	6.492768
1930.000000	6.536827
1929.000000	6.551226
1928.000000	6.598078
1927.000000	6.634507
1926.000000	6.672440
1925.000000	6.718539
1924.000000	6.779361
1923.000000	6.862319
1922.000000	6.931953
1921.000000	7.005777
1920.000000	7.060258
1919.000000	7.112376
1918.000000	7.187060
1917.000000	7.280871
1916.000000	7.395208
1915.000000	7.489986
1914.000000	7.599379
1913.000000	7.655043
1912.000000	7.762932
1911.000000	7.830738
1910.000000	7.969252
1909.000000	8.073273
1908.000000	8.193412
1907.000000	8.319676
1906.000000	8.423911
1905.000000	8.507729
1904.000000	8.624644
1903.000000	8.767027
1902.000000	8.904574
1901.000000	9.009561
1900.000000	9.144744
1899.000000	9.282614
1898.000000	9.405332
1897.000000	9.547930
1896.000000	9.694289
1895.000000	9.835060
1894.000000	9.963795
1893.000000	10.110799
1892.000000	10.238782
1891.000000	10.351399
1890.000000	10.464231
1889.000000	10.597910
1888.000000	10.750071
1887.000000	10.922113
1886.000000	11.094584
1885.000000	11.251152
1884.000000	11.445008
1883.000000	11.645526
1882.000000	11.839596
1881.000000	12.061391
1880.000000	12.271473
1879.000000	12.482522
1878.000000	12.692067
1877.000000	12.856586
1876.000000	13.010145
1875.000000	13.160158
1874.000000	13.296953
1873.000000	13.391194
1872.000000	13.488659
1871.000000	13.558615
1870.000000	13.580214
1869.000000	13.618040
1868.000000	13.701965
1867.000000	13.744733
1866.000000	13.793197
1865.000000	13.856598
1864.000000	13.923545
1863.000000	13.976092
1862.000000	13.997477
1861.000000	14.002635
1860.000000	13.993715
1859.000000	13.965776
1858.000000	13.916023
1857.000000	13.914841
1856.000000	13.919354
1855.000000	13.892167
1854.000000	13.855094
1853.000000	13.807060
1852.000000	13.786320
1851.000000	13.790618
1850.000000	13.793412
1849.000000	13.787395
1848.000000	13.698096
1847.000000	13.586017
1846.000000	13.515309
1845.000000	13.518962
1844.000000	13.560871
1843.000000	13.573229
1842.000000	13.562376
1841.000000	13.511655
1840.000000	13.455992
1839.000000	13.427837
1838.000000	13.408172
1837.000000	13.360138
1836.000000	13.301681
1835.000000	13.253969
1834.000000	13.222591
1833.000000	13.215606
1832.000000	13.211523
1831.000000	13.170259
1830.000000	13.112983
1829.000000	13.080745
1828.000000	13.025189
1827.000000	12.970923
1826.000000	12.932237
1825.000000	12.892048
1824.000000	12.893230
1823.000000	12.912143
1822.000000	12.914077
1821.000000	12.885815
1820.000000	12.831871
1819.000000	12.787920
1818.000000	12.797699
1817.000000	12.824886
1816.000000	12.843906
1815.000000	12.825961
1814.000000	12.808337
1813.000000	12.826498
1812.000000	12.821447
1811.000000	12.793078
1810.000000	12.749665
1809.000000	12.739886
1808.000000	12.743970
1807.000000	12.730537
1806.000000	12.685619
1805.000000	12.640164
1804.000000	12.622111
1803.000000	12.617920
1802.000000	12.604166
1801.000000	12.565373
1800.000000	12.519596
1799.000000	12.510569
1798.000000	12.492946
1797.000000	12.467693
1796.000000	12.444697
1795.000000	12.432447
1794.000000	12.414608
1793.000000	12.387529
1792.000000	12.345405
1791.000000	12.312093
1790.000000	12.291031
1789.000000	12.269646
1788.000000	12.230961
1787.000000	12.203774
1786.000000	12.173793
1785.000000	12.133496
1784.000000	12.081164
1783.000000	12.029583
1782.000000	11.988534
1781.000000	11.930829
1780.000000	11.884192
1779.000000	11.865386
1778.000000	11.807788
1777.000000	11.738478
1776.000000	11.695064
1775.000000	11.624249
1774.000000	11.546019
1773.000000	11.497447
1772.000000	11.409654
1771.000000	11.343674
1770.000000	11.268453
1769.000000	11.186247
1768.000000	11.129723
1767.000000	11.078680
1766.000000	11.013346
1765.000000	10.967676
1764.000000	10.963485
1763.000000	10.952631
1762.000000	10.940166
1761.000000	10.966816
1760.000000	11.000665
1759.000000	11.066538
1758.000000	11.091468
1757.000000	11.111240
1756.000000	11.136063
1755.000000	11.131335
1754.000000	11.138750
1753.000000	11.135204
1752.000000	11.141007
1751.000000	11.131980
1750.000000	11.081797
1749.000000	11.047088
1748.000000	10.989167
1747.000000	10.931892
1746.000000	10.880634
1745.000000	10.797246
1744.000000	10.705691
1743.000000	10.599199
1742.000000	10.514092
1741.000000	10.364294
1740.000000	10.245660
1739.000000	10.115742
1738.000000	9.998719
1737.000000	9.887607
1736.000000	9.828290
1735.000000	9.751672
1734.000000	9.741678
1733.000000	9.748233
1732.000000	9.781868
1731.000000	9.820123
1730.000000	9.859883
1729.000000	9.948536
1728.000000	10.000439
1727.000000	10.043960
1726.000000	10.093606
1725.000000	10.136697
1724.000000	10.156254
1723.000000	10.162917
1722.000000	10.153460
1721.000000	10.174844
1720.000000	10.189566
1719.000000	10.217721
1718.000000	10.212777
1717.000000	10.224383
1716.000000	10.259092
1715.000000	10.288428
1714.000000	10.310135
1713.000000	10.340546
1712.000000	10.359029
1711.000000	10.375040
1710.000000	10.367518
1709.000000	10.386968
1708.000000	10.371709
1707.000000	10.346241
1706.000000	10.322385
1705.000000	10.322600
1704.000000	10.307341
1703.000000	10.238138
1702.000000	10.211918
1701.000000	10.130464
1700.000000	10.043637
1699.000000	9.965515
1698.000000	9.895022
1697.000000	9.836994
1696.000000	9.788745
1695.000000	9.788960
1694.000000	9.825926
1693.000000	9.893195
1692.000000	9.958530
1691.000000	10.030742
1690.000000	10.120040
1689.000000	10.164528
1688.000000	10.204718
1687.000000	10.211380
1686.000000	10.199560
1685.000000	10.209124
1684.000000	10.253397
1683.000000	10.374288
1682.000000	10.532038
1681.000000	10.747600
1680.000000	11.047625
1679.000000	11.333788
1678.000000	11.628870
1677.000000	11.883332
1676.000000	12.138547
1675.000000	12.355076
1674.000000	12.504014
1673.000000	12.643711
1672.000000	12.766321
1671.000000	12.903653
1670.000000	13.000904
1669.000000	13.098046
1668.000000	13.180575
1667.000000	13.257623
1666.000000	13.305012
1665.000000	13.384209
1664.000000	13.413116
1663.000000	13.427622
1662.000000	13.475549
1661.000000	13.490701
1660.000000	13.498868
1659.000000	13.524765
1658.000000	13.541851
1657.000000	13.546472
1656.000000	13.557648
1655.000000	13.545075
1654.000000	13.545612
1653.000000	13.528634
1652.000000	13.523798
1651.000000	13.542711
1650.000000	13.498115
1649.000000	13.493172
1648.000000	13.465341
1647.000000	13.444601
1646.000000	13.405164
1645.000000	13.382597
1644.000000	13.365726
1643.000000	13.334886
1642.000000	13.298350
1641.000000	13.279007
1640.000000	13.229361
1639.000000	13.204538
1638.000000	13.187774
1637.000000	13.155537
1636.000000	13.109115
1635.000000	13.066453
1634.000000	13.014336
1633.000000	12.984033
1632.000000	12.955878
1631.000000	12.919450
1630.000000	12.874102
1629.000000	12.834020
1628.000000	12.791251
1627.000000	12.733224
1626.000000	12.694861
1625.000000	12.641991
1624.000000	12.598793
1623.000000	12.568167
1622.000000	12.519058
1621.000000	12.485639
1620.000000	12.434703
1619.000000	12.411170
1618.000000	12.373989
1617.000000	12.344330
1616.000000	12.286303
1615.000000	12.244501
1614.000000	12.212801
1613.000000	12.162295
1612.000000	12.132529
1611.000000	12.088578
1610.000000	12.073534
1609.000000	12.040867
1608.000000	11.987889
1607.000000	11.938673
1606.000000	11.915892
1605.000000	11.887201
1604.000000	11.846796
1603.000000	11.811764
1602.000000	11.782536
1601.000000	11.745677
1600.000000	11.710861
1599.000000	11.673465
1598.000000	11.647567
1597.000000	11.621670
1596.000000	11.593301
1595.000000	11.559666
1594.000000	11.529685
1593.000000	11.507226
1592.000000	11.471227
1591.000000	11.455539
1590.000000	11.451240
1589.000000	11.414059
1588.000000	11.386980
1587.000000	11.358933
1586.000000	11.348617
1585.000000	11.357966
1584.000000	11.348295
1583.000000	11.326266
1582.000000	11.317776
1581.000000	11.305741
1580.000000	11.288655
1579.000000	11.283927
1578.000000	11.291879
1577.000000	11.290267
1576.000000	11.288762
1575.000000	11.296929
1574.000000	11.300153
1573.000000	11.296499
1572.000000	11.314445
1571.000000	11.325836
1570.000000	11.348080
1569.000000	11.368067
1568.000000	11.369786
1567.000000	11.374515
1566.000000	11.393750
1565.000000	11.410513
1564.000000	11.434799
1563.000000	11.453067
1562.000000	11.449951
1561.000000	11.459085
1560.000000	11.476063
1559.000000	11.500779
1558.000000	11.508516
1557.000000	11.518939
1556.000000	11.544622
1555.000000	11.540109
1554.000000	11.537959
1553.000000	11.544944
1552.000000	11.548383
1551.000000	11.543225
1550.000000	11.529900
1549.000000	11.526246
1548.000000	11.532801
1547.000000	11.541720
1546.000000	11.544085
1545.000000	11.545374
1544.000000	11.535380
1543.000000	11.544944
1542.000000	11.558162
1541.000000	11.550425
1540.000000	11.555690
1539.000000	11.559988
1538.000000	11.553326
1537.000000	11.553971
1536.000000	11.553326
1535.000000	11.547523
1534.000000	11.554401
1533.000000	11.556335
1532.000000	11.552466
1531.000000	11.540968
1530.000000	11.544729
1529.000000	11.538497
1528.000000	11.525924
1527.000000	11.530115
1526.000000	11.518724
1525.000000	11.490785
1524.000000	11.479717
1523.000000	11.477890
1522.000000	11.481006
1521.000000	11.461341
1520.000000	11.436948
1519.000000	11.428566
1518.000000	11.422119
1517.000000	11.416423
1516.000000	11.417176
1515.000000	11.400627
1514.000000	11.362049
1513.000000	11.367960
1512.000000	11.354742
1511.000000	11.338731
1510.000000	11.307568
1509.000000	11.322719
1508.000000	11.307245
1507.000000	11.300368
1506.000000	11.271354
1505.000000	11.252334
1504.000000	11.237182
1503.000000	11.252656
1502.000000	11.246424
1501.000000	11.219881
1500.000000	11.205589
1499.000000	11.195273
1498.000000	11.205482
1497.000000	11.231057
1496.000000	11.203225
1495.000000	11.223105
1494.000000	11.220096
1493.000000	11.210210
1492.000000	11.241051
1491.000000	11.249325
1490.000000	11.262757
1489.000000	11.263510
1488.000000	11.270817
1487.000000	11.272214
1486.000000	11.288010
1485.000000	11.282745
1484.000000	11.314875
1483.000000	11.305526
1482.000000	11.362587
1481.000000	11.365918
1480.000000	11.374085
1479.000000	11.415994
1478.000000	11.427492
1477.000000	11.451992
1476.000000	11.455861
1475.000000	11.508086
1474.000000	11.542473
1473.000000	11.555368
1472.000000	11.572346
1471.000000	11.589002
1470.000000	11.611461
1469.000000	11.606303
1468.000000	11.646708
1467.000000	11.680342
1466.000000	11.707207
1465.000000	11.730955
1464.000000	11.763945
1463.000000	11.809615
1462.000000	11.826271
1461.000000	11.864204
1460.000000	11.894293
1459.000000	11.963604
1458.000000	12.008951
1457.000000	12.047529
1456.000000	12.082238
1455.000000	12.136720
1454.000000	12.199691
1453.000000	12.245253
1452.000000	12.314564
1451.000000	12.346372
1450.000000	12.400209
1449.000000	12.469197
1448.000000	12.519166
1447.000000	12.597718
1446.000000	12.652415
1445.000000	12.711732
1444.000000	12.774166
1443.000000	12.834235
1442.000000	12.931055
1441.000000	12.955878
1440.000000	13.036580
1439.000000	13.118464
1438.000000	13.173590
1437.000000	13.220764
1436.000000	13.293084
1435.000000	13.368735
1434.000000	13.432566
1433.000000	13.501769
1432.000000	13.571295
1431.000000	13.618899
1430.000000	13.712066
1429.000000	13.808134
1428.000000	13.871212
1427.000000	13.968033
1426.000000	14.063349
1425.000000	14.173172
1424.000000	14.273108
1423.000000	14.368317
1422.000000	14.464600
1421.000000	14.561958
1420.000000	14.680700
1419.000000	14.791060
1418.000000	14.864884
1417.000000	14.952463
1416.000000	15.020162
1415.000000	15.152444
1414.000000	15.226698
1413.000000	15.287842
1412.000000	15.357798
1411.000000	15.484814
1410.000000	15.587759
1409.000000	15.707683
1408.000000	15.806975
1407.000000	15.954946
1406.000000	16.093568
1405.000000	16.244870
1404.000000	16.354478
1403.000000	16.469566
1402.000000	16.656975
1401.000000	16.804515
1400.000000	16.812682
1399.000000	16.852335
1398.000000	16.917562
1397.000000	17.002025
1396.000000	17.036304
1395.000000	16.980318
1394.000000	16.943030
1393.000000	16.930672
1392.000000	16.929598
1391.000000	16.899939
1390.000000	16.921323
1389.000000	16.954313
1388.000000	16.979996
1387.000000	17.029212
1386.000000	17.099275
1385.000000	17.224357
1384.000000	17.389951
1383.000000	17.537814
1382.000000	17.650001
1381.000000	17.756063
1380.000000	17.855355
1379.000000	18.026859
1378.000000	18.190412
1377.000000	18.381903
1376.000000	18.599507
1375.000000	18.849134
1374.000000	19.157541
1373.000000	19.460360
1372.000000	19.774999
1371.000000	20.030536
1370.000000	20.245239
1369.000000	20.451775
1368.000000	20.651218
1367.000000	20.796395
1366.000000	20.937811
1365.000000	21.087609
1364.000000	21.174328
1363.000000	21.302956
1362.000000	21.378714
1361.000000	21.393866
1360.000000	21.403000
1359.000000	21.472419
1358.000000	21.527437
1357.000000	21.629416
1356.000000	21.771691
1355.000000	21.961893
1354.000000	22.221406
1353.000000	22.521109
1352.000000	22.821779
1351.000000	23.095584
1350.000000	23.352088
1349.000000	23.588282
1348.000000	23.815665
1347.000000	24.011025
1346.000000	24.193061
1345.000000	24.397232
1344.000000	24.564331
1343.000000	24.703275
1342.000000	24.852320
1341.000000	24.988686
1340.000000	25.121290
1339.000000	25.256688
1338.000000	25.390796
1337.000000	25.522326
1336.000000	25.656112
1335.000000	25.761422
1334.000000	25.845132
1333.000000	25.932604
1332.000000	26.050808
1331.000000	26.145372
1330.000000	26.227578
1329.000000	26.307527
1328.000000	26.391560
1327.000000	26.470113
1326.000000	26.523627
1325.000000	26.576604
1324.000000	26.636136
1323.000000	26.707812
1322.000000	26.773254
1321.000000	26.822578
1320.000000	26.883184
1319.000000	26.921225
1318.000000	26.951313
1317.000000	26.997413
1316.000000	27.038785
1315.000000	27.083273
1314.000000	27.123032
1313.000000	27.136572
1312.000000	27.152046
1311.000000	27.181168
1310.000000	27.207388
1309.000000	27.223291
1308.000000	27.230061
1307.000000	27.253595
1306.000000	27.272078
1305.000000	27.264233
1304.000000	27.252520
1303.000000	27.234682
1302.000000	27.234897
1301.000000	27.244138
1300.000000	27.230061
1299.000000	27.216307
1298.000000	27.211471
1297.000000	27.205346
1296.000000	27.188260
1295.000000	27.154733
1294.000000	27.140118
1293.000000	27.118949
1292.000000	27.101541
1291.000000	27.088968
1290.000000	27.078544
1289.000000	27.062211
1288.000000	27.008159
1287.000000	26.968292
1286.000000	26.939708
1285.000000	26.903172
1284.000000	26.864594
1283.000000	26.818709
1282.000000	26.770460
1281.000000	26.745422
1280.000000	26.725757
1279.000000	26.693734
1278.000000	26.648709
1277.000000	26.620877
1276.000000	26.593368
1275.000000	26.561130
1274.000000	26.533728
1273.000000	26.517502
1272.000000	26.502458
1271.000000	26.474411
1270.000000	26.445290
1269.000000	26.423153
1268.000000	26.395321
1267.000000	26.368349
1266.000000	26.322249
1265.000000	26.291946
1264.000000	26.282919
1263.000000	26.262610
1262.000000	26.235638
1261.000000	26.188033
1260.000000	26.155151
1259.000000	26.101421
1258.000000	26.068002
1257.000000	26.024481
1256.000000	26.006858
1255.000000	25.959791
1254.000000	25.929810
1253.000000	25.889190
1252.000000	25.839007
1251.000000	25.797098
1250.000000	25.753685
1249.000000	25.710594
1248.000000	25.654823
1247.000000	25.609797
1246.000000	25.541454
1245.000000	25.476656
1244.000000	25.427332
1243.000000	25.383059
1242.000000	25.313534
1241.000000	25.234014
1240.000000	25.181467
1239.000000	25.101302
1238.000000	25.024899
1237.000000	24.958490
1236.000000	24.878540
1235.000000	24.816214
1234.000000	24.737447
1233.000000	24.652339
1232.000000	24.581202
1231.000000	24.509419
1230.000000	24.407978
1229.000000	24.319969
1228.000000	24.239053
1227.000000	24.161575
1226.000000	24.075930
1225.000000	23.982871
1224.000000	23.895937
1223.000000	23.824369
1222.000000	23.734319
1221.000000	23.630621
1220.000000	23.554218
1219.000000	23.465994
1218.000000	23.383896
1217.000000	23.335754
1216.000000	23.263757
1215.000000	23.200893
1214.000000	23.114389
1213.000000	23.063024
1212.000000	23.022297
1211.000000	22.953523
1210.000000	22.898397
1209.000000	22.859282
1208.000000	22.811355
1207.000000	22.785135
1206.000000	22.767512
1205.000000	22.722164
1204.000000	22.737531
1203.000000	22.724314
1202.000000	22.713998
1201.000000	22.705078
1200.000000	22.690142
1199.000000	22.639851
1198.000000	22.594611
1197.000000	22.514984
1196.000000	22.426223
1195.000000	22.291255
1194.000000	22.147905
1193.000000	21.941691
1192.000000	21.712911
1191.000000	21.480048
1190.000000	21.264486
1189.000000	21.060959
1188.000000	20.916319
1187.000000	20.850232
1186.000000	20.803487
1185.000000	20.875700
1184.000000	21.015719
1183.000000	21.208607
1182.000000	21.445446
1181.000000	21.699801
1180.000000	21.952867
1179.000000	22.210983
1178.000000	22.424396
1177.000000	22.620616
1176.000000	22.781589
1175.000000	22.944604
1174.000000	23.124490
1173.000000	23.280950
1172.000000	23.454174
1171.000000	23.616759
1170.000000	23.816955
1169.000000	24.046917
1168.000000	24.197466
1167.000000	24.385089
1166.000000	24.586145
1165.000000	24.797194
1164.000000	25.024254
1163.000000	25.201132
1162.000000	25.414007
1161.000000	25.598299
1160.000000	25.777433
1159.000000	25.975695
1158.000000	26.152572
1157.000000	26.297426
1156.000000	26.433254
1155.000000	26.521908
1154.000000	26.569727
1153.000000	26.599386
1152.000000	26.614107
1151.000000	26.619695
1150.000000	26.582944
1149.000000	26.599601
1148.000000	26.592508
1147.000000	26.615612
1146.000000	26.667407
1145.000000	26.798077
1144.000000	26.892533
1143.000000	27.060276
1142.000000	27.225226
1141.000000	27.421445
1140.000000	27.583601
1139.000000	27.759618
1138.000000	27.965617
1137.000000	28.160762
1136.000000	28.371704
1135.000000	28.576520
1134.000000	28.692038
1133.000000	28.859137
1132.000000	29.018176
1131.000000	29.141968
1130.000000	29.294452
1129.000000	29.402663
1128.000000	29.474231
1127.000000	29.528820
1126.000000	29.601677
1125.000000	29.655407
1124.000000	29.698820
1123.000000	29.737290
1122.000000	29.762973
1121.000000	29.775653
1120.000000	29.800368
1119.000000	29.819711
1118.000000	29.833358
1117.000000	29.841310
1116.000000	29.846683
1115.000000	29.851949
1114.000000	29.857322
1113.000000	29.840666
1112.000000	29.832069
1111.000000	29.837119
1110.000000	29.853023
1109.000000	29.842170
1108.000000	29.834648
1107.000000	29.843137
1106.000000	29.837334
1105.000000	29.831639
1104.000000	29.847650
1103.000000	29.837657
1102.000000	29.815628
1101.000000	29.794243
1100.000000	29.804774
1099.000000	29.779736
1098.000000	29.774471
1097.000000	29.774149
1096.000000	29.746532
1095.000000	29.730950
1094.000000	29.704085
1093.000000	29.670451
1092.000000	29.662929
1091.000000	29.644553
1090.000000	29.602322
1089.000000	29.571481
1088.000000	29.562992
1087.000000	29.548163
1086.000000	29.504212
1085.000000	29.462733
1084.000000	29.447151
1083.000000	29.421361
1082.000000	29.377518
1081.000000	29.350653
1080.000000	29.331418
1079.000000	29.305521
1078.000000	29.277796
1077.000000	29.250394
1076.000000	29.252651
1075.000000	29.232879
1074.000000	29.208593
1073.000000	29.175388
1072.000000	29.146159
1071.000000	29.125527
1070.000000	29.099092
1069.000000	29.079857
1068.000000	29.066962
1067.000000	29.046545
1066.000000	29.035584
1065.000000	29.022367
1064.000000	28.999048
1063.000000	28.987765
1062.000000	28.970357
1061.000000	28.943385
1060.000000	28.921355
1059.000000	28.903410
1058.000000	28.894491
1057.000000	28.885894
1056.000000	28.884390
1055.000000	28.877190
1054.000000	28.859674
1053.000000	28.832165
1052.000000	28.810136
1051.000000	28.809491
1050.000000	28.807127
1049.000000	28.810243
1048.000000	28.794447
1047.000000	28.782519
1046.000000	28.774137
1045.000000	28.772847
1044.000000	28.761672
1043.000000	28.735452
1042.000000	28.724491
1041.000000	28.721375
1040.000000	28.705901
1039.000000	28.691179
1038.000000	28.677746
1037.000000	28.660123
1036.000000	28.654320
1035.000000	28.640995
1034.000000	28.628853
1033.000000	28.610047
1032.000000	28.576520
1031.000000	28.543853
1030.000000	28.522468
1029.000000	28.499902
1028.000000	28.467235
1027.000000	28.432525
1026.000000	28.410281
1025.000000	28.385136
1024.000000	28.347096
1023.000000	28.325604
1022.000000	28.298417
1021.000000	28.262848
1020.000000	28.240174
1019.000000	28.233512
1018.000000	28.222873
1017.000000	28.200092
1016.000000	28.175162
1015.000000	28.174517
1014.000000	28.175376
1013.000000	28.173012
1012.000000	28.197191
1011.000000	28.226527
1010.000000	28.237703
1009.000000	28.246944
1008.000000	28.256508
1007.000000	28.290680
1006.000000	28.328183
1005.000000	28.350749
1004.000000	28.369877
1003.000000	28.381482
1002.000000	28.392873
1001.000000	28.417696
1000.000000	28.444238
999.000000	28.469276
998.000000	28.497323
997.000000	28.517310
996.000000	28.526659
995.000000	28.542456
994.000000	28.589415
993.000000	28.619611
992.000000	28.640028
991.000000	28.660768
990.000000	28.690534
989.000000	28.704719
988.000000	28.732443
987.000000	28.766400
986.000000	28.783378
985.000000	28.803581
984.000000	28.833347
983.000000	28.866337
982.000000	28.877190
981.000000	28.891589
980.000000	28.925546
979.000000	28.938764
978.000000	28.958214
977.000000	28.976052
976.000000	28.993138
975.000000	29.022259
974.000000	29.057291
973.000000	29.091893
972.000000	29.110161
971.000000	29.114459
970.000000	29.156798
969.000000	29.175173
968.000000	29.188068
967.000000	29.205691
966.000000	29.224067
965.000000	29.255875
964.000000	29.289724
963.000000	29.298536
962.000000	29.342809
961.000000	29.371178
960.000000	29.398687
959.000000	29.415558
958.000000	29.442960
957.000000	29.447366
956.000000	29.460261
955.000000	29.488523
954.000000	29.497872
953.000000	29.502063
952.000000	29.487771
951.000000	29.506898
950.000000	29.497764
949.000000	29.506361
948.000000	29.531829
947.000000	29.521620
946.000000	29.537954
945.000000	29.576854
944.000000	29.621772
943.000000	29.640470
942.000000	29.693340
941.000000	29.706557
940.000000	29.755558
939.000000	29.801980
938.000000	29.863124
937.000000	29.922012
936.000000	29.954787
935.000000	30.017113
934.000000	30.100179
933.000000	30.158636
932.000000	30.231923
931.000000	30.325197
930.000000	30.395260
929.000000	30.464571
928.000000	30.542909
927.000000	30.633926
926.000000	30.720753
925.000000	30.802207
924.000000	30.856151
923.000000	30.971562
922.000000	31.059033
921.000000	31.135544
920.000000	31.213129
919.000000	31.303287
918.000000	31.366151
917.000000	31.452333
916.000000	31.511650
915.000000	31.585582
914.000000	31.695512
913.000000	31.733982
912.000000	31.808881
911.000000	31.841441
910.000000	31.898072
909.000000	31.995644
908.000000	32.033577
907.000000	32.138457
906.000000	32.183482
905.000000	32.241618
904.000000	32.333817
903.000000	32.426017
902.000000	32.456428
901.000000	32.503925
900.000000	32.596124
899.000000	32.672098
898.000000	32.714221
897.000000	32.775366
896.000000	32.785682
895.000000	32.857142
894.000000	32.889594
893.000000	32.941174
892.000000	32.958045
891.000000	32.996516
890.000000	33.016073
889.000000	33.022843
888.000000	32.985447
887.000000	33.005220
886.000000	33.004575
885.000000	33.005005
884.000000	32.964171
883.000000	32.855960
882.000000	32.805561
881.000000	32.784822
880.000000	32.712287
879.000000	32.569152
878.000000	32.485657
877.000000	32.327692
876.000000	32.262680
875.000000	32.199494
874.000000	32.095581
873.000000	31.917414
872.000000	31.797168
871.000000	31.626523
870.000000	31.468129
869.000000	31.309520
868.000000	31.226132
867.000000	31.037864
866.000000	30.930298
865.000000	30.759761
864.000000	30.648756
863.000000	30.431689
862.000000	30.228914
861.000000	30.011740
860.000000	29.835293
859.000000	29.739977
858.000000	30.098567
857.000000	30.255600
856.000000	30.005600
855.000000	30.034500
854.000000	30.388000
853.000000	30.470400
852.000000	30.653000
851.000000	30.544100
850.000000	30.595500
849.000000	30.764100
848.000000	30.806000
847.000000	30.948100
846.000000	30.920700
845.000000	31.138200
844.000000	31.093300
843.000000	31.009000
842.000000	31.237500
841.000000	31.237300
840.000000	31.425000
839.000000	31.499500
838.000000	31.499500
837.000000	31.635000
836.000000	31.615600
835.000000	31.529500
834.000000	31.640600
833.000000	31.713900
832.000000	31.714500
831.000000	31.643200
830.000000	31.742500
829.000000	31.889800
828.000000	31.712500
827.000000	31.802000
826.000000	31.731000
825.000000	31.667300
824.000000	31.643100
823.000000	31.652400
822.000000	31.587800
821.000000	31.526400
820.000000	31.554900
819.000000	31.536200
818.000000	31.467000
817.000000	31.435700
816.000000	31.413600
815.000000	31.335900
814.000000	31.337200
813.000000	31.184600
812.000000	31.142300
811.000000	31.034800
810.000000	30.957500
809.000000	30.931900
808.000000	30.849100
807.000000	30.746900
806.000000	30.675100
805.000000	30.595500
804.000000	30.494500
803.000000	30.411700
802.000000	30.283900
801.000000	30.197100
800.000000	30.097100
799.000000	29.975600
798.000000	29.870600
797.000000	29.726500
796.000000	29.568200
795.000000	29.457500
794.000000	29.370300
793.000000	29.208200
792.000000	29.081700
791.000000	28.931500
790.000000	28.777200
789.000000	28.607100
788.000000	28.498400
787.000000	28.259000
786.000000	28.120500
785.000000	28.010700
784.000000	27.849600
783.000000	27.685800
782.000000	27.558900
781.000000	27.396000
780.000000	27.260100
779.000000	27.106600
778.000000	26.875800
777.000000	26.754000
776.000000	26.665400
775.000000	26.493000
774.000000	26.313700
773.000000	26.210900
772.000000	26.138200
771.000000	26.036300
770.000000	25.928100
769.000000	25.806700
768.000000	25.667200
767.000000	25.644100
766.000000	25.589000
765.000000	25.475000
764.000000	25.400700
763.000000	25.336400
762.000000	25.360700
761.000000	25.337600
760.000000	25.241300
759.000000	25.182700
758.000000	25.135300
757.000000	25.104700
756.000000	25.072700
755.000000	25.068300
754.000000	25.047800
753.000000	25.016000
752.000000	24.997900
751.000000	24.995100
750.000000	24.994800
749.000000	24.977000
748.000000	24.997300
747.000000	25.011200
746.000000	25.041300
745.000000	25.078100
744.000000	25.101700
743.000000	25.111900
742.000000	25.080200
741.000000	25.116300
740.000000	25.145400
739.000000	25.116600
738.000000	25.131700
737.000000	25.145800
736.000000	25.135300
735.000000	25.129000
734.000000	25.120300
733.000000	25.127400
732.000000	25.114000
731.000000	25.099700
730.000000	25.121900
729.000000	25.085100
728.000000	25.055600
727.000000	25.040500
726.000000	25.023000
725.000000	25.009400
724.000000	24.981300
723.000000	24.934200
722.000000	24.898100
721.000000	24.880000
720.000000	24.812300
719.000000	24.751100
718.000000	24.713400
717.000000	24.636300
716.000000	24.551500
715.000000	24.504500
714.000000	24.483300
713.000000	24.401800
712.000000	24.307300
711.000000	24.224000
710.000000	24.110500
709.000000	24.022600
708.000000	23.911600
707.000000	23.822400
706.000000	23.724500
705.000000	23.608400
704.000000	23.494400
703.000000	23.360300
702.000000	23.208600
701.000000	23.082900
700.000000	22.956500
699.000000	22.805000
698.000000	22.627200
697.000000	22.485800
696.000000	22.328800
695.000000	22.153500
694.000000	21.999700
693.000000	21.842400
692.000000	21.652000
691.000000	21.491500
690.000000	21.310500
689.000000	21.128200
688.000000	20.989000
687.000000	20.842200
686.000000	20.688200
685.000000	20.541500
684.000000	20.396100
683.000000	20.250100
682.000000	20.119800
681.000000	19.986800
680.000000	19.876900
679.000000	19.770800
678.000000	19.693500
677.000000	19.631300
676.000000	19.588100
675.000000	19.561600
674.000000	19.547000
673.000000	19.539500
672.000000	19.563600
671.000000	19.595500
670.000000	19.660800
669.000000	19.765000
668.000000	19.850400
667.000000	19.970200
666.000000	20.088300
665.000000	20.236600
664.000000	20.380900
663.000000	20.561400
662.000000	20.751100
661.000000	20.928300
660.000000	21.114200
659.000000	21.300800
658.000000	21.477400
657.000000	21.683100
656.000000	21.881100
655.000000	22.059700
654.000000	22.268000
653.000000	22.509700
652.000000	22.708700
651.000000	22.925800
650.000000	23.192300
649.000000	23.404700
648.000000	23.629400
647.000000	23.855300
646.000000	24.081300
645.000000	24.311000
644.000000	24.549400
643.000000	24.787500
642.000000	25.013100
641.000000	25.233600
640.000000	25.449900
639.000000	25.658300
638.000000	25.873900
637.000000	26.051800
636.000000	26.217800
635.000000	26.407300
634.000000	26.605400
633.000000	26.780800
632.000000	26.980900
631.000000	27.165000
630.000000	27.358700
629.000000	27.540000
628.000000	27.723700
627.000000	27.917300
626.000000	28.092200
625.000000	28.315200
624.000000	28.497600
623.000000	28.684800
622.000000	28.876700
621.000000	29.065700
620.000000	29.241200
619.000000	29.417900
618.000000	29.585500
617.000000	29.730200
616.000000	29.881300
615.000000	30.039900
614.000000	30.210700
613.000000	30.301900
612.000000	30.439600
611.000000	30.576900
610.000000	30.712800
609.000000	30.830800
608.000000	30.939300
607.000000	31.060800
606.000000	31.164900
605.000000	31.235900
604.000000	31.337600
603.000000	31.424300
602.000000	31.509000
601.000000	31.565000
600.000000	31.638400
599.000000	31.694800
598.000000	31.753000
597.000000	31.787700
596.000000	31.838900
595.000000	31.826400
594.000000	31.885500
593.000000	31.878700
592.000000	31.908700
591.000000	31.927300
590.000000	31.893300
589.000000	31.914400
588.000000	31.873600
587.000000	31.857200
586.000000	31.853900
585.000000	31.855400
584.000000	31.789000
583.000000	31.760900
582.000000	31.725500
581.000000	31.684500
580.000000	31.631600
579.000000	31.569900
578.000000	31.494300
577.000000	31.428800
576.000000	31.365700
575.000000	31.252400
574.000000	31.182200
573.000000	31.083100
572.000000	30.969400
571.000000	30.876600
570.000000	30.756300
569.000000	30.611300
568.000000	30.447600
567.000000	30.341400
566.000000	30.166000
565.000000	30.023700
564.000000	29.858300
563.000000	29.683900
562.000000	29.473700
561.000000	29.304700
560.000000	29.178700
559.000000	29.692800
558.000000	29.490100
557.000000	29.215300
556.000000	28.947800
555.000000	28.686700
554.000000	28.398200
553.000000	28.072500
552.000000	27.744200
551.000000	27.403800
550.000000	27.053200
549.000000	26.682800
548.000000	26.296400
547.000000	25.896500
546.000000	25.490600
545.000000	25.052100
544.000000	24.630500
543.000000	24.166100
542.000000	23.723400
541.000000	23.251900
540.000000	22.791100
539.000000	22.319400
538.000000	21.867800
537.000000	21.407600
536.000000	20.952400
535.000000	20.502800
534.000000	20.056200
533.000000	19.613300
532.000000	19.202800
531.000000	18.792000
530.000000	18.415900
529.000000	18.051000
528.000000	17.707100
527.000000	17.366200
526.000000	17.048100
525.000000	16.753100
524.000000	16.460600
523.000000	16.191200
522.000000	15.938600
521.000000	15.701200
520.000000	15.455600
519.000000	15.218100
518.000000	14.990700
517.000000	14.773500
516.000000	14.559000
515.000000	14.348000
514.000000	14.123600
513.000000	13.902200
512.000000	13.671800
511.000000	13.437000
510.000000	13.192700
509.000000	12.940600
508.000000	12.680900
507.000000	12.434500
506.000000	12.179100
505.000000	11.930900
504.000000	11.673400
503.000000	11.443000
502.000000	11.214800
501.000000	10.988200
500.000000	10.783200
499.000000	10.608000
498.000000	10.440200
497.000000	10.289500
496.000000	10.173200
495.000000	10.073400
494.000000	9.994000
493.000000	9.938800
492.000000	9.889600
491.000000	9.868800
490.000000	9.878300
489.000000	9.881100
488.000000	9.911000
487.000000	9.957800
486.000000	9.996200
485.000000	10.046600
484.000000	10.108500
483.000000	10.176200
482.000000	10.254500
481.000000	10.335100
480.000000	10.419400
479.000000	10.501200
478.000000	10.569500
477.000000	10.634200
476.000000	10.683800
475.000000	10.734800
474.000000	10.787000
473.000000	10.828700
472.000000	10.857400
471.000000	10.878700
470.000000	10.892900
469.000000	10.899100
468.000000	10.893700
467.000000	10.889400
466.000000	10.885300
465.000000	10.859700
464.000000	10.834500
463.000000	10.808000
462.000000	10.776900
461.000000	10.733400
460.000000	10.691300
459.000000	10.655300
458.000000	10.613000
457.000000	10.552300
456.000000	10.488200
455.000000	10.424600
454.000000	10.372400
453.000000	10.302600
452.000000	10.211100
451.000000	10.137800
450.000000	10.058800
449.000000	9.965700
448.000000	9.876800
447.000000	9.782500
446.000000	9.671000
445.000000	9.558700
444.000000	9.452300
443.000000	9.339700
442.000000	9.213400
441.000000	9.084100
440.000000	8.941600
439.000000	8.795400
438.000000	8.655300
437.000000	8.501400
436.000000	8.343500
435.000000	8.194200
434.000000	8.031800
433.000000	7.861100
432.000000	7.685200
431.000000	7.508200
430.000000	7.332500
429.000000	7.156700
428.000000	6.983400
427.000000	6.799000
426.000000	6.616600
425.000000	6.437400
424.000000	6.258800
423.000000	6.085400
422.000000	5.910400
421.000000	5.733700
420.000000	5.561200
419.000000	5.395700
418.000000	5.236700
417.000000	5.081500
416.000000	4.925300
415.000000	4.771900
414.000000	4.629500
413.000000	4.499300
412.000000	4.365800
411.000000	4.245800
410.000000	4.126900
409.000000	4.016700
408.000000	3.917400
407.000000	3.809100
406.000000	3.720300
405.000000	3.643800
404.000000	3.565100
403.000000	3.486500
402.000000	3.412400
401.000000	3.354200
400.000000	3.296600
399.000000	3.243000
398.000000	3.192200
397.000000	3.147200
396.000000	3.102400
395.000000	3.055600
394.000000	3.023800
393.000000	2.985600
392.000000	2.952600
391.000000	2.916800
390.000000	2.894300
389.000000	2.874800
388.000000	2.839900
387.000000	2.818900
386.000000	2.801900
385.000000	2.788600
384.000000	2.766000
383.000000	2.747500
382.000000	2.716500
381.000000	2.706800
380.000000	2.688000
379.000000	2.666300
378.000000	2.656600
377.000000	2.639400
376.000000	2.880600
375.000000	2.951200
374.000000	2.882700
373.000000	2.747500
372.000000	2.891500
371.000000	2.846900
370.000000	2.862600
369.000000	2.924400
368.000000	2.919400
367.000000	2.888000
366.000000	2.903400
365.000000	2.927300
364.000000	2.914500
363.000000	2.879900
362.000000	2.852900
361.000000	2.903400
360.000000	2.876600
359.000000	2.836800
358.000000	2.865200
357.000000	2.842700
356.000000	2.863900
355.000000	2.816700
354.000000	2.803800
353.000000	2.793000
352.000000	2.783800
351.000000	2.748300
350.000000	2.715000
349.000000	2.787400
348.000000	2.838800
347.000000	2.863600
346.000000	2.839400
345.000000	2.792600
344.000000	2.728200
343.000000	2.822700
342.000000	2.805600
341.000000	2.811400
340.000000	2.823800
339.000000	2.665100
338.000000	2.857100
337.000000	2.794400
336.000000	2.748100
335.000000	2.700700
334.000000	2.831900
333.000000	2.859900
332.000000	2.750700
331.000000	2.891400
330.000000	2.857100
329.000000	2.795400
328.000000	2.938700
327.000000	2.798400
326.000000	2.808900
325.000000	2.741400
324.000000	2.973600
323.000000	3.066600
322.000000	3.154100
321.000000	3.036200
320.000000	2.607500
319.000000	2.881200
318.000000	3.134100
317.000000	3.430300
316.000000	2.758900
315.000000	2.647100
314.000000	2.619100
313.000000	2.586300
312.000000	2.631600
311.000000	2.651600
310.000000	2.612700
309.000000	2.691500
308.000000	2.614100
307.000000	2.656400
306.000000	2.632200
305.000000	2.632500
304.000000	2.656000
303.000000	2.641500
302.000000	2.656100
301.000000	2.633300
300.000000	2.608100
299.000000	2.605000
298.000000	2.638900
297.000000	2.683200
296.000000	2.687400
295.000000	2.648200
294.000000	2.660000
293.000000	2.669300
292.000000	2.697100
291.000000	2.712300
290.000000	2.713700
289.000000	2.742600
288.000000	2.659900
287.000000	2.699800
286.000000	2.688200
285.000000	2.690600
284.000000	2.714800
283.000000	2.736700
282.000000	2.754700
281.000000	2.721100
280.000000	2.734800
279.000000	2.727500
278.000000	2.744200
277.000000	2.773400
276.000000	2.754200
275.000000	2.763300
274.000000	2.742500
273.000000	2.769200
272.000000	2.756200
271.000000	2.802200
270.000000	2.799200
269.000000	2.810100
268.000000	2.805500
267.000000	2.779900
266.000000	2.844200
265.000000	2.824200
264.000000	2.851400
263.000000	2.847900
262.000000	2.884400
261.000000	2.854700
260.000000	2.872200
259.000000	2.924900
258.000000	2.892900
257.000000	2.902500
256.000000	2.907000
255.000000	2.917100
254.000000	2.908300
253.000000	2.949000
252.000000	2.948900
251.000000	2.910200
250.000000	2.936400
