PE UV       SUBTECH     SPECTRUM    ASCII       PEDS        4.00        
   -1
CICIMAUCR0234-2.Sample.ASC
24/06/19
14:18:19.00
24/06/19
14:18:19.00
Vinicio Soto Monge
C. resplendens. Sex M. Ventral 
250,000000
1
Lambda 1050
1050L1511233
PerkinElmer UV WinLab 6.3.2.0749 / 2.02.05 Lambda 900 UV/VIS/NIR, Aug  7 2015 09:38:08

0
0
3350/servo 860,8/2
0
0
UV/VIS
1
1
1
DoubleDePol,CommonBeamDepol,RBeamAtt,SBeamAtt,60mm sphere, WB InGaAs Detector
0
0
0
0
Program
Program
3350/servo 860,8/2
3350/0,2 860,8/0,2
3350/0,2 860,8/0,2
0
15.00
 
 
 
0
 
860,8
319,2
860,8
Front
100
on
S:100 R:100
0
0
0
0
 
0
 
 
 
0
 
 
0
0
0
0
0
 
 
 
 
0
0


0
0
#HDR
-1
-1
#GR
nm
%R
1.0
0.0
2500,000000
-1,000000
2251
8
62,771200
4,564100
#DATA
2482.000000	8.136601
2481.000000	8.086293
2480.000000	8.070822
2479.000000	8.071044
2478.000000	8.078613
2477.000000	8.122132
2476.000000	8.085625
2475.000000	8.144281
2474.000000	8.203827
2473.000000	8.079392
2472.000000	8.112115
2471.000000	8.148955
2470.000000	8.100428
2469.000000	8.089854
2468.000000	8.115342
2467.000000	8.140608
2466.000000	8.187466
2465.000000	8.175890
2464.000000	8.190916
2463.000000	8.237440
2462.000000	8.218408
2461.000000	8.250685
2460.000000	8.281516
2459.000000	8.296319
2458.000000	8.334050
2457.000000	8.353973
2456.000000	8.377681
2455.000000	8.412295
2454.000000	8.474958
2453.000000	8.506011
2452.000000	8.542964
2451.000000	8.571791
2450.000000	8.609522
2449.000000	8.630669
2448.000000	8.704796
2447.000000	8.782485
2446.000000	8.816209
2445.000000	8.834351
2444.000000	8.895679
2443.000000	8.958119
2442.000000	9.027905
2441.000000	9.025679
2440.000000	9.080773
2439.000000	9.129524
2438.000000	9.180055
2437.000000	9.234926
2436.000000	9.293137
2435.000000	9.317735
2434.000000	9.369824
2433.000000	9.419465
2432.000000	9.454525
2431.000000	9.487693
2430.000000	9.510843
2429.000000	9.554696
2428.000000	9.591537
2427.000000	9.643960
2426.000000	9.660322
2425.000000	9.704174
2424.000000	9.752145
2423.000000	9.774072
2422.000000	9.790990
2421.000000	9.843969
2420.000000	9.872908
2419.000000	9.885819
2418.000000	9.921213
2417.000000	9.946367
2416.000000	9.974526
2415.000000	10.008362
2414.000000	10.029287
2413.000000	10.055109
2412.000000	10.081265
2411.000000	10.106419
2410.000000	10.132130
2409.000000	10.151607
2408.000000	10.181214
2407.000000	10.202917
2406.000000	10.223620
2405.000000	10.240871
2404.000000	10.265580
2403.000000	10.289733
2402.000000	10.295632
2401.000000	10.324682
2400.000000	10.362190
2399.000000	10.374990
2398.000000	10.389237
2397.000000	10.413389
2396.000000	10.436540
2395.000000	10.455238
2394.000000	10.465033
2393.000000	10.470932
2392.000000	10.484622
2391.000000	10.509108
2390.000000	10.534597
2389.000000	10.556857
2388.000000	10.559862
2387.000000	10.548843
2386.000000	10.555521
2385.000000	10.569768
2384.000000	10.585350
2383.000000	10.596369
2382.000000	10.601600
2381.000000	10.591472
2380.000000	10.592251
2379.000000	10.586686
2378.000000	10.586018
2377.000000	10.572439
2376.000000	10.569991
2375.000000	10.564425
2374.000000	10.549066
2373.000000	10.538715
2372.000000	10.536489
2371.000000	10.525247
2370.000000	10.500538
2369.000000	10.479614
2368.000000	10.452567
2367.000000	10.424297
2366.000000	10.400144
2365.000000	10.379553
2364.000000	10.361745
2363.000000	10.344605
2362.000000	10.322344
2361.000000	10.291514
2360.000000	10.255118
2359.000000	10.231077
2358.000000	10.217053
2357.000000	10.176428
2356.000000	10.135357
2355.000000	10.117104
2354.000000	10.111650
2353.000000	10.107198
2352.000000	10.100520
2351.000000	10.099073
2350.000000	10.089167
2349.000000	10.102078
2348.000000	10.119330
2347.000000	10.138808
2346.000000	10.160957
2345.000000	10.183106
2344.000000	10.197575
2343.000000	10.214159
2342.000000	10.214938
2341.000000	10.228517
2340.000000	10.251779
2339.000000	10.278046
2338.000000	10.292181
2337.000000	10.288842
2336.000000	10.300306
2335.000000	10.304870
2334.000000	10.290623
2333.000000	10.272704
2332.000000	10.265580
2331.000000	10.274484
2330.000000	10.267695
2329.000000	10.228628
2328.000000	10.203363
2327.000000	10.165631
2326.000000	10.122335
2325.000000	10.091504
2324.000000	10.056890
2323.000000	10.024501
2322.000000	9.975973
2321.000000	9.914646
2320.000000	9.865228
2319.000000	9.808798
2318.000000	9.735339
2317.000000	9.678686
2316.000000	9.624928
2315.000000	9.569054
2314.000000	9.499602
2313.000000	9.434490
2312.000000	9.393977
2311.000000	9.324636
2310.000000	9.246724
2309.000000	9.217563
2308.000000	9.186065
2307.000000	9.151561
2306.000000	9.134866
2305.000000	9.131193
2304.000000	9.118171
2303.000000	9.141989
2302.000000	9.162246
2301.000000	9.201313
2300.000000	9.223351
2299.000000	9.259635
2298.000000	9.321185
2297.000000	9.350458
2296.000000	9.408223
2295.000000	9.449627
2294.000000	9.503497
2293.000000	9.543232
2292.000000	9.597325
2291.000000	9.644071
2290.000000	9.652530
2289.000000	9.675236
2288.000000	9.685810
2287.000000	9.696272
2286.000000	9.690596
2285.000000	9.683138
2284.000000	9.693935
2283.000000	9.674234
2282.000000	9.668558
2281.000000	9.629714
2280.000000	9.594765
2279.000000	9.572171
2278.000000	9.558814
2277.000000	9.520749
2276.000000	9.498934
2275.000000	9.478232
2274.000000	9.454079
2273.000000	9.440055
2272.000000	9.427701
2271.000000	9.429593
2270.000000	9.441948
2269.000000	9.469550
2268.000000	9.486913
2267.000000	9.511400
2266.000000	9.567273
2265.000000	9.632941
2264.000000	9.728772
2263.000000	9.810579
2262.000000	9.927446
2261.000000	10.013482
2260.000000	10.134467
2259.000000	10.275041
2258.000000	10.406043
2257.000000	10.592028
2256.000000	10.765436
2255.000000	10.915248
2254.000000	11.057158
2253.000000	11.210755
2252.000000	11.377151
2251.000000	11.551672
2250.000000	11.694027
2249.000000	11.833488
2248.000000	11.970834
2247.000000	12.094490
2246.000000	12.209576
2245.000000	12.336683
2244.000000	12.422496
2243.000000	12.529569
2242.000000	12.644432
2241.000000	12.711436
2240.000000	12.809604
2239.000000	12.861693
2238.000000	12.934150
2237.000000	13.000709
2236.000000	13.060255
2235.000000	13.106112
2234.000000	13.155418
2233.000000	13.194485
2232.000000	13.200829
2231.000000	13.250581
2230.000000	13.244905
2229.000000	13.265496
2228.000000	13.270949
2227.000000	13.273955
2226.000000	13.293210
2225.000000	13.272619
2224.000000	13.272396
2223.000000	13.235778
2222.000000	13.218192
2221.000000	13.216968
2220.000000	13.155084
2219.000000	13.155084
2218.000000	13.143064
2217.000000	13.089528
2216.000000	13.077730
2215.000000	13.040889
2214.000000	13.009613
2213.000000	12.980897
2212.000000	12.959638
2211.000000	12.909775
2210.000000	12.890409
2209.000000	12.872712
2208.000000	12.847112
2207.000000	12.838987
2206.000000	12.808379
2205.000000	12.827746
2204.000000	12.792463
2203.000000	12.770426
2202.000000	12.754732
2201.000000	12.753062
2200.000000	12.719004
2199.000000	12.718225
2198.000000	12.696521
2197.000000	12.680494
2196.000000	12.690288
2195.000000	12.646101
2194.000000	12.660014
2193.000000	12.669141
2192.000000	12.637643
2191.000000	12.639646
2190.000000	12.637531
2189.000000	12.622728
2188.000000	12.616273
2187.000000	12.596684
2186.000000	12.591341
2185.000000	12.575870
2184.000000	12.568969
2183.000000	12.543815
2182.000000	12.559397
2181.000000	12.548490
2180.000000	12.537694
2179.000000	12.497402
2178.000000	12.509089
2177.000000	12.517214
2176.000000	12.498070
2175.000000	12.498961
2174.000000	12.478370
2173.000000	12.504303
2172.000000	12.513096
2171.000000	12.514877
2170.000000	12.510647
2169.000000	12.523002
2168.000000	12.515656
2167.000000	12.551050
2166.000000	12.542368
2165.000000	12.548490
2164.000000	12.575091
2163.000000	12.594012
2162.000000	12.623730
2161.000000	12.650108
2160.000000	12.647660
2159.000000	12.682052
2158.000000	12.707206
2157.000000	12.747831
2156.000000	12.785340
2155.000000	12.812052
2154.000000	12.825854
2153.000000	12.868816
2152.000000	12.919459
2151.000000	12.951513
2150.000000	12.976890
2149.000000	13.029536
2148.000000	13.051796
2147.000000	13.100658
2146.000000	13.129707
2145.000000	13.169108
2144.000000	13.197268
2143.000000	13.237893
2142.000000	13.280967
2141.000000	13.308903
2140.000000	13.315915
2139.000000	13.354871
2138.000000	13.401951
2137.000000	13.428330
2136.000000	13.464392
2135.000000	13.474965
2134.000000	13.489323
2133.000000	13.525051
2132.000000	13.546644
2131.000000	13.567568
2130.000000	13.572132
2129.000000	13.573690
2128.000000	13.594392
2127.000000	13.605188
2126.000000	13.601515
2125.000000	13.610976
2124.000000	13.628784
2123.000000	13.628339
2122.000000	13.614426
2121.000000	13.603964
2120.000000	13.593502
2119.000000	13.600959
2118.000000	13.582705
2117.000000	13.561781
2116.000000	13.555437
2115.000000	13.547089
2114.000000	13.528835
2113.000000	13.506909
2112.000000	13.495334
2111.000000	13.486875
2110.000000	13.459828
2109.000000	13.429666
2108.000000	13.427551
2107.000000	13.412414
2106.000000	13.390487
2105.000000	13.372790
2104.000000	13.347636
2103.000000	13.328381
2102.000000	13.303449
2101.000000	13.278184
2100.000000	13.260598
2099.000000	13.254031
2098.000000	13.229100
2097.000000	13.194596
2096.000000	13.181797
2095.000000	13.168886
2094.000000	13.151077
2093.000000	13.143731
2092.000000	13.132824
2091.000000	13.114014
2090.000000	13.093757
2089.000000	13.078954
2088.000000	13.074613
2087.000000	13.059921
2086.000000	13.039664
2085.000000	13.033209
2084.000000	13.007832
2083.000000	12.973551
2082.000000	12.951736
2081.000000	12.924467
2080.000000	12.901650
2079.000000	12.874381
2078.000000	12.838987
2077.000000	12.803260
2076.000000	12.759741
2075.000000	12.729355
2074.000000	12.697189
2073.000000	12.663019
2072.000000	12.632634
2071.000000	12.580322
2070.000000	12.523892
2069.000000	12.485716
2068.000000	12.439192
2067.000000	12.379200
2066.000000	12.331118
2065.000000	12.293386
2064.000000	12.247085
2063.000000	12.200783
2062.000000	12.157932
2061.000000	12.112632
2060.000000	12.071896
2059.000000	12.063993
2058.000000	12.050860
2057.000000	12.025928
2056.000000	12.015689
2055.000000	12.013240
2054.000000	12.007341
2053.000000	12.009790
2052.000000	12.029267
2051.000000	12.053865
2050.000000	12.094268
2049.000000	12.126879
2048.000000	12.182419
2047.000000	12.253986
2046.000000	12.294722
2045.000000	12.363618
2044.000000	12.436409
2043.000000	12.499517
2042.000000	12.550493
2041.000000	12.591898
2040.000000	12.662240
2039.000000	12.731247
2038.000000	12.794021
2037.000000	12.843773
2036.000000	12.896308
2035.000000	12.952404
2034.000000	12.992472
2033.000000	13.026531
2032.000000	13.061480
2031.000000	13.115795
2030.000000	13.134827
2029.000000	13.153192
2028.000000	13.201274
2027.000000	13.218192
2026.000000	13.237559
2025.000000	13.243792
2024.000000	13.267499
2023.000000	13.287645
2022.000000	13.302448
2021.000000	13.287422
2020.000000	13.286420
2019.000000	13.300778
2018.000000	13.314802
2017.000000	13.320924
2016.000000	13.306343
2015.000000	13.286420
2014.000000	13.283749
2013.000000	13.271840
2012.000000	13.267722
2011.000000	13.283860
2010.000000	13.257704
2009.000000	13.223535
2008.000000	13.199939
2007.000000	13.179348
2006.000000	13.149964
2005.000000	13.131043
2004.000000	13.081625
2003.000000	13.046565
2002.000000	13.014621
2001.000000	12.979784
2000.000000	12.943054
1999.000000	12.897421
1998.000000	12.862361
1997.000000	12.797806
1996.000000	12.742711
1995.000000	12.688507
1994.000000	12.616718
1993.000000	12.591675
1992.000000	12.529346
1991.000000	12.471692
1990.000000	12.433627
1989.000000	12.374080
1988.000000	12.320655
1987.000000	12.242521
1986.000000	12.186982
1985.000000	12.142016
1984.000000	12.063660
1983.000000	11.999772
1982.000000	11.919969
1981.000000	11.884353
1980.000000	11.798650
1979.000000	11.742109
1978.000000	11.687015
1977.000000	11.625687
1976.000000	11.567365
1975.000000	11.514052
1974.000000	11.450387
1973.000000	11.378598
1972.000000	11.336971
1971.000000	11.301132
1970.000000	11.233794
1969.000000	11.174915
1968.000000	11.117261
1967.000000	11.055934
1966.000000	11.003733
1965.000000	10.952201
1964.000000	10.913356
1963.000000	10.869615
1962.000000	10.841901
1961.000000	10.753304
1960.000000	10.704109
1959.000000	10.658921
1958.000000	10.615179
1957.000000	10.585573
1956.000000	10.519237
1955.000000	10.485846
1954.000000	10.442661
1953.000000	10.381334
1952.000000	10.347276
1951.000000	10.316000
1950.000000	10.256676
1949.000000	10.236308
1948.000000	10.193568
1947.000000	10.150828
1946.000000	10.130015
1945.000000	10.119664
1944.000000	10.070914
1943.000000	10.045092
1942.000000	10.025725
1941.000000	10.000905
1940.000000	10.003576
1939.000000	10.009809
1938.000000	9.979535
1937.000000	9.981093
1936.000000	9.990888
1935.000000	9.975194
1934.000000	10.002574
1933.000000	10.001573
1932.000000	10.017934
1931.000000	10.058782
1930.000000	10.106975
1929.000000	10.118551
1928.000000	10.174424
1927.000000	10.211822
1926.000000	10.267472
1925.000000	10.304202
1924.000000	10.370872
1923.000000	10.442995
1922.000000	10.515675
1921.000000	10.600376
1920.000000	10.714460
1919.000000	10.804837
1918.000000	10.883194
1917.000000	11.004846
1916.000000	11.084984
1915.000000	11.179256
1914.000000	11.315156
1913.000000	11.473983
1912.000000	11.626800
1911.000000	11.774053
1910.000000	11.916630
1909.000000	12.041622
1908.000000	12.202787
1907.000000	12.342359
1906.000000	12.525228
1905.000000	12.779997
1904.000000	12.999262
1903.000000	13.196377
1902.000000	13.419982
1901.000000	13.657612
1900.000000	13.912381
1899.000000	14.166594
1898.000000	14.479352
1897.000000	14.769627
1896.000000	15.049996
1895.000000	15.316786
1894.000000	15.592592
1893.000000	15.889656
1892.000000	16.222894
1891.000000	16.642724
1890.000000	17.049198
1889.000000	17.451887
1888.000000	17.842111
1887.000000	18.263722
1886.000000	18.709819
1885.000000	19.171610
1884.000000	19.640079
1883.000000	20.173659
1882.000000	20.767677
1881.000000	21.252952
1880.000000	21.776404
1879.000000	22.236303
1878.000000	22.715902
1877.000000	23.239354
1876.000000	23.701034
1875.000000	24.133218
1874.000000	24.592783
1873.000000	25.034540
1872.000000	25.484866
1871.000000	25.869302
1870.000000	26.295477
1869.000000	26.671899
1868.000000	27.031404
1867.000000	27.320566
1866.000000	27.560087
1865.000000	27.754642
1864.000000	27.973461
1863.000000	28.132846
1862.000000	28.269635
1861.000000	28.442042
1860.000000	28.635484
1859.000000	28.799988
1858.000000	28.947240
1857.000000	29.061992
1856.000000	29.169287
1855.000000	29.230058
1854.000000	29.316985
1853.000000	29.374305
1852.000000	29.398680
1851.000000	29.419716
1850.000000	29.457559
1849.000000	29.464793
1848.000000	29.494399
1847.000000	29.547602
1846.000000	29.556506
1845.000000	29.510650
1844.000000	29.483603
1843.000000	29.433072
1842.000000	29.415820
1841.000000	29.470692
1840.000000	29.477036
1839.000000	29.465016
1838.000000	29.421942
1837.000000	29.371077
1836.000000	29.356831
1835.000000	29.362618
1834.000000	29.309639
1833.000000	29.242412
1832.000000	29.157155
1831.000000	29.099835
1830.000000	29.071008
1829.000000	29.017249
1828.000000	28.963379
1827.000000	28.885468
1826.000000	28.827257
1825.000000	28.792976
1824.000000	28.729645
1823.000000	28.668318
1822.000000	28.622573
1821.000000	28.628917
1820.000000	28.633703
1819.000000	28.610330
1818.000000	28.574936
1817.000000	28.520398
1816.000000	28.492684
1815.000000	28.479550
1814.000000	28.452727
1813.000000	28.443823
1812.000000	28.430689
1811.000000	28.394405
1810.000000	28.352555
1809.000000	28.320278
1808.000000	28.280765
1807.000000	28.230457
1806.000000	28.194173
1805.000000	28.143864
1804.000000	28.092332
1803.000000	28.043248
1802.000000	28.000842
1801.000000	27.949309
1800.000000	27.898555
1799.000000	27.853256
1798.000000	27.801055
1797.000000	27.746406
1796.000000	27.699993
1795.000000	27.654471
1794.000000	27.608726
1793.000000	27.562647
1792.000000	27.500207
1791.000000	27.448896
1790.000000	27.407158
1789.000000	27.363862
1788.000000	27.311995
1787.000000	27.263690
1786.000000	27.213159
1785.000000	27.161627
1784.000000	27.109537
1783.000000	27.046096
1782.000000	26.989666
1781.000000	26.923886
1780.000000	26.859999
1779.000000	26.785204
1778.000000	26.716086
1777.000000	26.641402
1776.000000	26.552027
1775.000000	26.468217
1774.000000	26.381736
1773.000000	26.286016
1772.000000	26.198756
1771.000000	26.101478
1770.000000	25.990733
1769.000000	25.883215
1768.000000	25.788275
1767.000000	25.686990
1766.000000	25.594053
1765.000000	25.517032
1764.000000	25.464387
1763.000000	25.415971
1762.000000	25.392597
1761.000000	25.408625
1760.000000	25.441013
1759.000000	25.473959
1758.000000	25.522931
1757.000000	25.590826
1756.000000	25.649259
1755.000000	25.709584
1754.000000	25.750432
1753.000000	25.781485
1752.000000	25.824670
1751.000000	25.822333
1750.000000	25.818326
1749.000000	25.825227
1748.000000	25.787162
1747.000000	25.739191
1746.000000	25.688103
1745.000000	25.595389
1744.000000	25.520928
1743.000000	25.400500
1742.000000	25.285970
1741.000000	25.131706
1740.000000	24.944830
1739.000000	24.768640
1738.000000	24.592560
1737.000000	24.422714
1736.000000	24.277799
1735.000000	24.148021
1734.000000	24.029374
1733.000000	23.982182
1732.000000	23.964596
1731.000000	23.962259
1730.000000	24.004776
1729.000000	24.053415
1728.000000	24.115744
1727.000000	24.201557
1726.000000	24.288707
1725.000000	24.362500
1724.000000	24.420488
1723.000000	24.476473
1722.000000	24.532124
1721.000000	24.578314
1720.000000	24.639530
1719.000000	24.708203
1718.000000	24.783443
1717.000000	24.849779
1716.000000	24.948169
1715.000000	25.059360
1714.000000	25.161646
1713.000000	25.255696
1712.000000	25.351416
1711.000000	25.436116
1710.000000	25.506904
1709.000000	25.558325
1708.000000	25.594276
1707.000000	25.612863
1706.000000	25.570791
1705.000000	25.563445
1704.000000	25.520372
1703.000000	25.473625
1702.000000	25.407066
1701.000000	25.326373
1700.000000	25.229651
1699.000000	25.106218
1698.000000	24.991688
1697.000000	24.872596
1696.000000	24.784111
1695.000000	24.738477
1694.000000	24.718554
1693.000000	24.753837
1692.000000	24.816166
1691.000000	24.922681
1690.000000	25.043555
1689.000000	25.178898
1688.000000	25.299438
1687.000000	25.402837
1686.000000	25.500003
1685.000000	25.581365
1684.000000	25.690886
1683.000000	25.855390
1682.000000	26.067308
1681.000000	26.363371
1680.000000	26.747139
1679.000000	27.182106
1678.000000	27.635216
1677.000000	28.118710
1676.000000	28.570039
1675.000000	28.988756
1674.000000	29.358611
1673.000000	29.735479
1672.000000	29.987800
1671.000000	30.265720
1670.000000	30.495113
1669.000000	30.713042
1668.000000	30.907709
1667.000000	31.087461
1666.000000	31.244730
1665.000000	31.351469
1664.000000	31.453087
1663.000000	31.552257
1662.000000	31.659107
1661.000000	31.734235
1660.000000	31.816376
1659.000000	31.875032
1658.000000	31.923560
1657.000000	31.997241
1656.000000	32.002139
1655.000000	32.027070
1654.000000	32.034750
1653.000000	32.021839
1652.000000	32.036086
1651.000000	32.013157
1650.000000	32.003919
1649.000000	31.988003
1648.000000	31.953388
1647.000000	31.896068
1646.000000	31.854219
1645.000000	31.825614
1644.000000	31.771299
1643.000000	31.710083
1642.000000	31.647643
1641.000000	31.612249
1640.000000	31.565279
1639.000000	31.491041
1638.000000	31.434277
1637.000000	31.378404
1636.000000	31.328429
1635.000000	31.262093
1634.000000	31.184293
1633.000000	31.114396
1632.000000	31.029139
1631.000000	30.961467
1630.000000	30.899361
1629.000000	30.807648
1628.000000	30.721167
1627.000000	30.640362
1626.000000	30.570131
1625.000000	30.484317
1624.000000	30.374240
1623.000000	30.302784
1622.000000	30.202167
1621.000000	30.103554
1620.000000	30.040891
1619.000000	29.969101
1618.000000	29.898202
1617.000000	29.808604
1616.000000	29.748946
1615.000000	29.663022
1614.000000	29.580547
1613.000000	29.505641
1612.000000	29.432516
1611.000000	29.344476
1610.000000	29.270572
1609.000000	29.187095
1608.000000	29.106958
1607.000000	29.014912
1606.000000	28.938893
1605.000000	28.878790
1604.000000	28.794979
1603.000000	28.685125
1602.000000	28.596751
1601.000000	28.530860
1600.000000	28.442042
1599.000000	28.378711
1598.000000	28.280209
1597.000000	28.195286
1596.000000	28.125722
1595.000000	28.045585
1594.000000	27.972682
1593.000000	27.896663
1592.000000	27.810293
1591.000000	27.721920
1590.000000	27.679068
1589.000000	27.611063
1588.000000	27.538160
1587.000000	27.473717
1586.000000	27.408939
1585.000000	27.352064
1584.000000	27.310214
1583.000000	27.237201
1582.000000	27.183553
1581.000000	27.121892
1580.000000	27.065351
1579.000000	27.031404
1578.000000	26.997234
1577.000000	26.963064
1576.000000	26.920102
1575.000000	26.895393
1574.000000	26.857773
1573.000000	26.838073
1572.000000	26.825607
1571.000000	26.813475
1570.000000	26.805127
1569.000000	26.785427
1568.000000	26.777302
1567.000000	26.784314
1566.000000	26.778749
1565.000000	26.774742
1564.000000	26.775410
1563.000000	26.763055
1562.000000	26.752482
1561.000000	26.757379
1560.000000	26.729553
1559.000000	26.705178
1558.000000	26.668115
1557.000000	26.652310
1556.000000	26.613577
1555.000000	26.571282
1554.000000	26.547464
1553.000000	26.517412
1552.000000	26.464878
1551.000000	26.425588
1550.000000	26.372386
1549.000000	26.327420
1548.000000	26.258413
1547.000000	26.202317
1546.000000	26.162582
1545.000000	26.117728
1544.000000	26.074543
1543.000000	26.039260
1542.000000	26.002642
1541.000000	25.967025
1540.000000	25.942539
1539.000000	25.902359
1538.000000	25.869191
1537.000000	25.845595
1536.000000	25.815989
1535.000000	25.780261
1534.000000	25.740526
1533.000000	25.695338
1532.000000	25.653600
1531.000000	25.613197
1530.000000	25.550979
1529.000000	25.504010
1528.000000	25.466390
1527.000000	25.418197
1526.000000	25.348410
1525.000000	25.286193
1524.000000	25.242451
1523.000000	25.184463
1522.000000	25.116346
1521.000000	25.054017
1520.000000	25.001706
1519.000000	24.940267
1518.000000	24.875489
1517.000000	24.815720
1516.000000	24.748605
1515.000000	24.685386
1514.000000	24.627732
1513.000000	24.552826
1512.000000	24.483151
1511.000000	24.432397
1510.000000	24.356935
1509.000000	24.274015
1508.000000	24.199443
1507.000000	24.125204
1506.000000	24.056643
1505.000000	23.988192
1504.000000	23.920632
1503.000000	23.852960
1502.000000	23.778500
1501.000000	23.708825
1500.000000	23.649946
1499.000000	23.583610
1498.000000	23.527514
1497.000000	23.476761
1496.000000	23.419663
1495.000000	23.362120
1494.000000	23.310698
1493.000000	23.262505
1492.000000	23.222881
1491.000000	23.175912
1490.000000	23.136623
1489.000000	23.097110
1488.000000	23.046913
1487.000000	22.999165
1486.000000	22.977906
1485.000000	22.965441
1484.000000	22.929935
1483.000000	22.888308
1482.000000	22.860372
1481.000000	22.825312
1480.000000	22.793034
1479.000000	22.779901
1478.000000	22.771108
1477.000000	22.755748
1476.000000	22.731150
1475.000000	22.724361
1474.000000	22.741056
1473.000000	22.730149
1472.000000	22.739275
1471.000000	22.750294
1470.000000	22.751741
1469.000000	22.754301
1468.000000	22.748959
1467.000000	22.773334
1466.000000	22.788471
1465.000000	22.801493
1464.000000	22.829875
1463.000000	22.833437
1462.000000	22.857367
1461.000000	22.903112
1460.000000	22.941511
1459.000000	22.992376
1458.000000	23.046913
1457.000000	23.095552
1456.000000	23.163558
1455.000000	23.221323
1454.000000	23.291443
1453.000000	23.352548
1452.000000	23.444817
1451.000000	23.522172
1450.000000	23.605648
1449.000000	23.679441
1448.000000	23.735982
1447.000000	23.826359
1446.000000	23.934211
1445.000000	24.033937
1444.000000	24.149246
1443.000000	24.221926
1442.000000	24.306070
1441.000000	24.434289
1440.000000	24.541918
1439.000000	24.665240
1438.000000	24.786671
1437.000000	24.926799
1436.000000	25.018957
1435.000000	25.130482
1434.000000	25.275285
1433.000000	25.403171
1432.000000	25.569233
1431.000000	25.712033
1430.000000	25.849825
1429.000000	26.025681
1428.000000	26.206435
1427.000000	26.412455
1426.000000	26.608123
1425.000000	26.801454
1424.000000	27.020607
1423.000000	27.278048
1422.000000	27.504436
1421.000000	27.735498
1420.000000	27.989934
1419.000000	28.289336
1418.000000	28.597419
1417.000000	28.881461
1416.000000	29.139236
1415.000000	29.448543
1414.000000	29.799366
1413.000000	30.150189
1412.000000	30.487211
1411.000000	30.774926
1410.000000	31.173609
1409.000000	31.623379
1408.000000	32.079048
1407.000000	32.545291
1406.000000	32.963340
1405.000000	33.434369
1404.000000	33.941794
1403.000000	34.448439
1402.000000	34.864485
1401.000000	35.306798
1400.000000	35.917065
1399.000000	36.434396
1398.000000	36.822727
1397.000000	37.170434
1396.000000	37.591266
1395.000000	38.162577
1394.000000	38.669334
1393.000000	39.027169
1392.000000	39.472042
1391.000000	39.944295
1390.000000	40.430573
1389.000000	40.834709
1388.000000	41.431064
1387.000000	42.056468
1386.000000	42.635460
1385.000000	43.212893
1384.000000	43.842749
1383.000000	44.491305
1382.000000	45.115262
1381.000000	45.726420
1380.000000	46.200676
1379.000000	46.521003
1378.000000	46.864146
1377.000000	47.088753
1376.000000	47.364670
1375.000000	47.608087
1374.000000	47.849500
1373.000000	48.153688
1372.000000	48.466112
1371.000000	48.847654
1370.000000	49.223965
1369.000000	49.533273
1368.000000	49.868625
1367.000000	50.200638
1366.000000	50.459080
1365.000000	50.644286
1364.000000	50.893713
1363.000000	51.091942
1362.000000	51.310538
1361.000000	51.493073
1360.000000	51.686070
1359.000000	51.733040
1358.000000	51.889641
1357.000000	52.020532
1356.000000	52.175798
1355.000000	52.435242
1354.000000	52.765029
1353.000000	53.142342
1352.000000	53.502848
1351.000000	53.905315
1350.000000	54.364324
1349.000000	54.763006
1348.000000	55.147888
1347.000000	55.538779
1346.000000	55.908746
1345.000000	56.242429
1344.000000	56.584125
1343.000000	56.954203
1342.000000	57.250155
1341.000000	57.581611
1340.000000	57.901381
1339.000000	58.176296
1338.000000	58.480595
1337.000000	58.782891
1336.000000	59.069047
1335.000000	59.373346
1334.000000	59.624220
1333.000000	59.918947
1332.000000	60.184736
1331.000000	60.438838
1330.000000	60.690046
1329.000000	60.954165
1328.000000	61.184782
1327.000000	61.415956
1326.000000	61.629432
1325.000000	61.831556
1324.000000	62.029896
1323.000000	62.211206
1322.000000	62.412996
1321.000000	62.607997
1320.000000	62.744119
1319.000000	62.925986
1318.000000	63.095944
1317.000000	63.234514
1316.000000	63.398017
1315.000000	63.546493
1314.000000	63.678052
1313.000000	63.816956
1312.000000	63.938053
1311.000000	64.065382
1310.000000	64.176572
1309.000000	64.270177
1308.000000	64.374021
1307.000000	64.461171
1306.000000	64.544758
1305.000000	64.614544
1304.000000	64.695127
1303.000000	64.764357
1302.000000	64.817670
1301.000000	64.865752
1300.000000	64.916617
1299.000000	64.949563
1298.000000	64.993193
1297.000000	65.018347
1296.000000	65.058304
1295.000000	65.085685
1294.000000	65.105051
1293.000000	65.120856
1292.000000	65.129983
1291.000000	65.116960
1290.000000	65.122303
1289.000000	65.109169
1288.000000	65.099041
1287.000000	65.069657
1286.000000	65.051070
1285.000000	65.013338
1284.000000	64.984400
1283.000000	64.947448
1282.000000	64.903372
1281.000000	64.854400
1280.000000	64.810992
1279.000000	64.767362
1278.000000	64.710932
1277.000000	64.673980
1276.000000	64.639699
1275.000000	64.606753
1274.000000	64.590392
1273.000000	64.549210
1272.000000	64.523166
1271.000000	64.492001
1270.000000	64.476196
1269.000000	64.461282
1268.000000	64.441136
1267.000000	64.410194
1266.000000	64.383593
1265.000000	64.359663
1264.000000	64.323602
1263.000000	64.284090
1262.000000	64.233670
1261.000000	64.198387
1260.000000	64.168002
1259.000000	64.139509
1258.000000	64.086195
1257.000000	64.034996
1256.000000	63.990030
1255.000000	63.938609
1254.000000	63.872051
1253.000000	63.807273
1252.000000	63.746614
1251.000000	63.660911
1250.000000	63.582777
1249.000000	63.513214
1248.000000	63.414823
1247.000000	63.323890
1246.000000	63.232400
1245.000000	63.120764
1244.000000	63.017253
1243.000000	62.913854
1242.000000	62.792869
1241.000000	62.674110
1240.000000	62.548451
1239.000000	62.432808
1238.000000	62.313381
1237.000000	62.194066
1236.000000	62.074305
1235.000000	61.951651
1234.000000	61.826993
1233.000000	61.690092
1232.000000	61.544064
1231.000000	61.398259
1230.000000	61.248780
1229.000000	61.097967
1228.000000	60.951160
1227.000000	60.794892
1226.000000	60.624823
1225.000000	60.461432
1224.000000	60.298820
1223.000000	60.126191
1222.000000	59.950001
1221.000000	59.786721
1220.000000	59.616763
1219.000000	59.436232
1218.000000	59.258706
1217.000000	59.103328
1216.000000	58.953961
1215.000000	58.791461
1214.000000	58.642539
1213.000000	58.502410
1212.000000	58.364396
1211.000000	58.212247
1210.000000	58.055868
1209.000000	57.937777
1208.000000	57.805439
1207.000000	57.668427
1206.000000	57.551003
1205.000000	57.449274
1204.000000	57.363682
1203.000000	57.289556
1202.000000	57.225112
1201.000000	57.159666
1200.000000	57.091327
1199.000000	57.005625
1198.000000	56.918810
1197.000000	56.817525
1196.000000	56.675281
1195.000000	56.504099
1194.000000	56.301864
1193.000000	56.059338
1192.000000	55.776297
1191.000000	55.472221
1190.000000	55.130302
1189.000000	54.801406
1188.000000	54.510463
1187.000000	54.284520
1186.000000	54.122465
1185.000000	54.070710
1184.000000	54.124802
1183.000000	54.254135
1182.000000	54.504453
1181.000000	54.820661
1180.000000	55.209772
1179.000000	55.611348
1178.000000	55.982206
1177.000000	56.360075
1176.000000	56.681292
1175.000000	56.946078
1174.000000	57.236465
1173.000000	57.492570
1172.000000	57.747340
1171.000000	58.014575
1170.000000	58.269790
1169.000000	58.549936
1168.000000	58.831641
1167.000000	59.123029
1166.000000	59.412858
1165.000000	59.720496
1164.000000	60.008768
1163.000000	60.318298
1162.000000	60.651313
1161.000000	60.984216
1160.000000	61.301537
1159.000000	61.609843
1158.000000	61.912139
1157.000000	62.206309
1156.000000	62.493690
1155.000000	62.734102
1154.000000	62.962048
1153.000000	63.173076
1152.000000	63.331124
1151.000000	63.466133
1150.000000	63.578771
1149.000000	63.692521
1148.000000	63.784790
1147.000000	63.908891
1146.000000	64.044568
1145.000000	64.233893
1144.000000	64.459278
1143.000000	64.688337
1142.000000	64.951900
1141.000000	65.223365
1140.000000	65.548700
1139.000000	65.871475
1138.000000	66.197589
1137.000000	66.524482
1136.000000	66.890776
1135.000000	67.268868
1134.000000	67.667551
1133.000000	68.016704
1132.000000	68.271808
1131.000000	68.549728
1130.000000	68.781236
1129.000000	69.037897
1128.000000	69.220877
1127.000000	69.373917
1126.000000	69.481212
1125.000000	69.594183
1124.000000	69.659184
1123.000000	69.717728
1122.000000	69.771376
1121.000000	69.828473
1120.000000	69.826470
1119.000000	69.847840
1118.000000	69.853962
1117.000000	69.865426
1116.000000	69.823020
1115.000000	69.818011
1114.000000	69.777609
1113.000000	69.772377
1112.000000	69.744552
1111.000000	69.701812
1110.000000	69.661410
1109.000000	69.659740
1108.000000	69.626683
1107.000000	69.592180
1106.000000	69.556341
1105.000000	69.542985
1104.000000	69.499800
1103.000000	69.454500
1102.000000	69.427453
1101.000000	69.395287
1100.000000	69.367684
1099.000000	69.327616
1098.000000	69.275415
1097.000000	69.223103
1096.000000	69.188934
1095.000000	69.147752
1094.000000	69.088317
1093.000000	69.056819
1092.000000	68.960765
1091.000000	68.903222
1090.000000	68.876399
1089.000000	68.790474
1088.000000	68.732819
1087.000000	68.654908
1086.000000	68.608050
1085.000000	68.540824
1084.000000	68.472151
1083.000000	68.387784
1082.000000	68.316551
1081.000000	68.227398
1080.000000	68.158725
1079.000000	68.091833
1078.000000	67.991550
1077.000000	67.950257
1076.000000	67.856207
1075.000000	67.781857
1074.000000	67.710179
1073.000000	67.639725
1072.000000	67.577953
1071.000000	67.472550
1070.000000	67.395529
1069.000000	67.324073
1068.000000	67.235032
1067.000000	67.146436
1066.000000	67.075092
1065.000000	66.978148
1064.000000	66.900904
1063.000000	66.815870
1062.000000	66.746751
1061.000000	66.645133
1060.000000	66.560544
1059.000000	66.490646
1058.000000	66.400937
1057.000000	66.291527
1056.000000	66.198368
1055.000000	66.135594
1054.000000	66.017948
1053.000000	65.932245
1052.000000	65.811260
1051.000000	65.752827
1050.000000	65.683486
1049.000000	65.602904
1048.000000	65.485035
1047.000000	65.426602
1046.000000	65.359709
1045.000000	65.270000
1044.000000	65.201104
1043.000000	65.113287
1042.000000	65.050068
1041.000000	64.965034
1040.000000	64.904040
1039.000000	64.827465
1038.000000	64.718834
1037.000000	64.663406
1036.000000	64.583157
1035.000000	64.503354
1034.000000	64.423105
1033.000000	64.355879
1032.000000	64.272403
1031.000000	64.179243
1030.000000	64.091760
1029.000000	64.013738
1028.000000	63.930261
1027.000000	63.826528
1026.000000	63.758523
1025.000000	63.671374
1024.000000	63.571425
1023.000000	63.479823
1022.000000	63.409147
1021.000000	63.337580
1020.000000	63.234514
1019.000000	63.155713
1018.000000	63.066226
1017.000000	62.984419
1016.000000	62.910404
1015.000000	62.837946
1014.000000	62.783520
1013.000000	62.727424
1012.000000	62.680788
1011.000000	62.608665
1010.000000	62.573382
1009.000000	62.533870
1008.000000	62.494358
1007.000000	62.452954
1006.000000	62.419452
1005.000000	62.387620
1004.000000	62.359238
1003.000000	62.326181
1002.000000	62.297465
1001.000000	62.264965
1000.000000	62.240590
999.000000	62.217884
998.000000	62.203860
997.000000	62.165127
996.000000	62.116822
995.000000	62.104913
994.000000	62.090444
993.000000	62.059057
992.000000	62.032456
991.000000	62.018543
990.000000	62.001180
989.000000	61.990940
988.000000	61.955324
987.000000	61.948423
986.000000	61.917258
985.000000	61.917036
984.000000	61.900786
983.000000	61.877079
982.000000	61.879416
981.000000	61.890212
980.000000	61.875409
979.000000	61.875520
978.000000	61.848808
977.000000	61.810743
976.000000	61.801950
975.000000	61.809741
974.000000	61.820537
973.000000	61.800948
972.000000	61.772566
971.000000	61.781804
970.000000	61.797832
969.000000	61.781359
968.000000	61.764441
967.000000	61.768114
966.000000	61.780691
965.000000	61.806068
964.000000	61.803174
963.000000	61.791710
962.000000	61.793268
961.000000	61.811633
960.000000	61.833226
959.000000	61.833114
958.000000	61.824322
957.000000	61.822096
956.000000	61.836899
955.000000	61.857489
954.000000	61.846137
953.000000	61.840238
952.000000	61.831222
951.000000	61.810854
950.000000	61.825768
949.000000	61.836453
948.000000	61.818311
947.000000	61.796941
946.000000	61.775571
945.000000	61.779912
944.000000	61.785477
943.000000	61.758765
942.000000	61.730383
941.000000	61.719921
940.000000	61.694655
939.000000	61.682857
938.000000	61.661487
937.000000	61.624980
936.000000	61.600271
935.000000	61.573447
934.000000	61.567437
933.000000	61.539946
932.000000	61.507891
931.000000	61.484295
930.000000	61.441666
929.000000	61.423190
928.000000	61.385125
927.000000	61.321572
926.000000	61.272599
925.000000	61.260356
924.000000	61.230972
923.000000	61.146271
922.000000	61.073591
921.000000	61.028514
920.000000	60.974310
919.000000	60.912872
918.000000	60.897846
917.000000	60.852324
916.000000	60.792443
915.000000	60.699284
914.000000	60.610020
913.000000	60.602451
912.000000	60.567280
911.000000	60.497939
910.000000	60.412348
909.000000	60.346569
908.000000	60.300156
907.000000	60.256526
906.000000	60.215233
905.000000	60.181508
904.000000	60.152125
903.000000	60.128306
902.000000	60.114950
901.000000	60.092912
900.000000	60.056182
899.000000	60.030027
898.000000	59.978828
897.000000	59.939427
896.000000	59.918947
895.000000	59.887894
894.000000	59.859290
893.000000	59.788947
892.000000	59.740308
891.000000	59.688330
890.000000	59.613535
889.000000	59.573912
888.000000	59.530393
887.000000	59.483758
886.000000	59.394271
885.000000	59.312464
884.000000	59.231548
883.000000	59.159981
882.000000	59.066265
881.000000	58.965426
880.000000	58.881393
879.000000	58.782334
878.000000	58.637976
877.000000	58.462119
876.000000	58.305852
875.000000	58.165834
874.000000	57.978513
873.000000	57.742108
872.000000	57.502698
871.000000	57.346653
870.000000	57.339307
869.000000	57.360900
868.000000	57.404642
867.000000	57.433803
866.000000	57.448717
865.000000	57.472424
864.000000	57.509710
863.000000	57.561800
862.000000	57.583058
861.000000	57.602313
860.000000	57.630918
859.000000	57.637930
858.000000	57.665867
857.000000	56.789100
856.000000	58.267500
855.000000	57.941000
854.000000	57.939200
853.000000	58.241700
852.000000	58.243600
851.000000	58.292900
850.000000	58.316200
849.000000	58.288600
848.000000	58.170900
847.000000	57.977400
846.000000	58.233400
845.000000	58.163800
844.000000	58.346900
843.000000	58.248500
842.000000	58.339700
841.000000	58.267900
840.000000	58.059200
839.000000	57.919400
838.000000	58.043500
837.000000	57.992400
836.000000	57.824500
835.000000	57.960900
834.000000	57.783500
833.000000	57.832700
832.000000	57.683200
831.000000	57.416800
830.000000	57.698600
829.000000	57.580100
828.000000	57.591900
827.000000	57.413300
826.000000	57.328400
825.000000	57.377900
824.000000	57.244600
823.000000	57.223400
822.000000	57.058500
821.000000	56.930800
820.000000	56.935700
819.000000	56.846600
818.000000	56.840200
817.000000	56.552400
816.000000	56.539300
815.000000	56.306000
814.000000	56.299800
813.000000	56.354200
812.000000	56.127600
811.000000	56.062800
810.000000	55.877300
809.000000	55.793100
808.000000	55.692800
807.000000	55.484300
806.000000	55.497400
805.000000	55.319400
804.000000	55.223400
803.000000	54.958900
802.000000	54.991700
801.000000	54.808300
800.000000	54.630700
799.000000	54.635500
798.000000	54.433100
797.000000	54.199100
796.000000	54.008000
795.000000	53.964100
794.000000	53.723600
793.000000	53.565900
792.000000	53.307800
791.000000	53.168600
790.000000	53.030400
789.000000	52.957800
788.000000	52.768800
787.000000	52.379700
786.000000	52.233800
785.000000	52.076600
784.000000	51.843500
783.000000	51.653600
782.000000	51.461200
781.000000	51.249300
780.000000	51.090000
779.000000	50.755900
778.000000	50.347600
777.000000	50.242200
776.000000	49.932400
775.000000	49.684900
774.000000	49.451200
773.000000	49.150700
772.000000	48.876000
771.000000	48.636500
770.000000	48.372900
769.000000	48.073700
768.000000	47.710300
767.000000	47.462200
766.000000	47.087500
765.000000	46.724400
764.000000	46.542100
763.000000	46.212800
762.000000	45.927500
761.000000	45.620500
760.000000	45.130400
759.000000	44.884900
758.000000	44.496600
757.000000	44.297700
756.000000	43.944300
755.000000	43.552700
754.000000	43.222800
753.000000	42.922100
752.000000	42.539300
751.000000	42.289500
750.000000	41.874300
749.000000	41.588300
748.000000	41.302700
747.000000	41.036600
746.000000	40.673900
745.000000	40.390000
744.000000	40.015300
743.000000	39.752400
742.000000	39.397400
741.000000	39.075900
740.000000	38.728500
739.000000	38.498600
738.000000	38.222700
737.000000	37.956400
736.000000	37.635900
735.000000	37.336500
734.000000	37.106000
733.000000	36.880800
732.000000	36.599000
731.000000	36.349100
730.000000	36.123700
729.000000	35.826000
728.000000	35.607100
727.000000	35.373000
726.000000	35.109300
725.000000	34.859100
724.000000	34.647800
723.000000	34.397500
722.000000	34.226500
721.000000	33.976000
720.000000	33.779700
719.000000	33.560700
718.000000	33.368800
717.000000	33.157900
716.000000	32.933800
715.000000	32.748600
714.000000	32.564500
713.000000	32.338900
712.000000	32.162800
711.000000	31.988900
710.000000	31.786300
709.000000	31.612900
708.000000	31.483700
707.000000	31.287300
706.000000	31.126100
705.000000	30.915700
704.000000	30.742700
703.000000	30.595100
702.000000	30.455500
701.000000	30.297600
700.000000	30.134100
699.000000	29.960800
698.000000	29.823500
697.000000	29.724800
696.000000	29.593700
695.000000	29.452400
694.000000	29.309900
693.000000	29.174100
692.000000	29.051900
691.000000	28.911000
690.000000	28.781000
689.000000	28.653200
688.000000	28.524300
687.000000	28.423000
686.000000	28.336500
685.000000	28.227700
684.000000	28.120400
683.000000	28.002800
682.000000	27.915200
681.000000	27.820400
680.000000	27.718200
679.000000	27.643300
678.000000	27.553600
677.000000	27.478500
676.000000	27.403500
675.000000	27.330600
674.000000	27.233900
673.000000	27.172500
672.000000	27.120600
671.000000	27.063900
670.000000	26.987700
669.000000	26.942900
668.000000	26.892400
667.000000	26.826400
666.000000	26.795300
665.000000	26.748000
664.000000	26.707400
663.000000	26.687400
662.000000	26.679700
661.000000	26.631000
660.000000	26.598200
659.000000	26.575100
658.000000	26.543200
657.000000	26.506200
656.000000	26.483000
655.000000	26.471700
654.000000	26.442800
653.000000	26.414100
652.000000	26.421100
651.000000	26.432800
650.000000	26.423500
649.000000	26.414800
648.000000	26.411300
647.000000	26.416900
646.000000	26.418700
645.000000	26.434500
644.000000	26.464100
643.000000	26.491900
642.000000	26.518300
641.000000	26.554200
640.000000	26.594600
639.000000	26.628600
638.000000	26.668500
637.000000	26.720800
636.000000	26.778000
635.000000	26.840800
634.000000	26.904400
633.000000	26.976500
632.000000	27.054400
631.000000	27.135400
630.000000	27.224900
629.000000	27.297500
628.000000	27.381200
627.000000	27.457700
626.000000	27.541800
625.000000	27.636000
624.000000	27.747600
623.000000	27.854500
622.000000	27.952800
621.000000	28.056300
620.000000	28.148600
619.000000	28.251600
618.000000	28.351800
617.000000	28.454300
616.000000	28.537300
615.000000	28.621300
614.000000	28.721200
613.000000	28.802200
612.000000	28.892900
611.000000	29.007700
610.000000	29.092500
609.000000	29.161700
608.000000	29.250500
607.000000	29.316200
606.000000	29.382500
605.000000	29.464000
604.000000	29.521800
603.000000	29.583100
602.000000	29.645000
601.000000	29.684500
600.000000	29.731900
599.000000	29.783000
598.000000	29.812500
597.000000	29.827100
596.000000	29.832000
595.000000	29.847000
594.000000	29.897900
593.000000	29.895800
592.000000	29.882100
591.000000	29.872300
590.000000	29.844300
589.000000	29.823300
588.000000	29.815500
587.000000	29.765000
586.000000	29.723100
585.000000	29.666200
584.000000	29.610800
583.000000	29.573700
582.000000	29.487500
581.000000	29.436600
580.000000	29.357800
579.000000	29.269400
578.000000	29.180800
577.000000	29.073700
576.000000	28.970100
575.000000	28.868400
574.000000	28.745400
573.000000	28.613000
572.000000	28.498500
571.000000	28.341800
570.000000	28.202200
569.000000	28.053100
568.000000	27.883000
567.000000	27.733200
566.000000	27.575200
565.000000	27.418800
564.000000	27.243000
563.000000	27.048900
562.000000	26.856100
561.000000	26.675000
560.000000	26.475600
559.000000	26.286200
558.000000	26.083800
557.000000	25.864100
556.000000	25.667800
555.000000	25.430600
554.000000	25.211500
553.000000	24.996500
552.000000	24.769400
551.000000	24.529200
550.000000	24.278100
549.000000	24.048500
548.000000	23.805900
547.000000	23.583200
546.000000	23.321400
545.000000	23.075300
544.000000	22.833400
543.000000	22.566700
542.000000	22.301600
541.000000	22.031900
540.000000	21.789100
539.000000	21.529400
538.000000	21.277600
537.000000	21.006100
536.000000	20.732600
535.000000	20.477800
534.000000	20.207700
533.000000	19.948700
532.000000	19.670700
531.000000	19.413200
530.000000	19.155200
529.000000	18.913900
528.000000	18.671300
527.000000	18.411100
526.000000	18.156800
525.000000	17.899000
524.000000	17.643800
523.000000	17.402500
522.000000	17.159500
521.000000	16.917200
520.000000	16.683600
519.000000	16.470400
518.000000	16.243400
517.000000	16.016200
516.000000	15.818000
515.000000	15.582700
514.000000	15.373600
513.000000	15.177600
512.000000	14.986900
511.000000	14.793300
510.000000	14.628500
509.000000	14.448200
508.000000	14.271200
507.000000	14.103400
506.000000	13.939300
505.000000	13.789100
504.000000	13.643300
503.000000	13.504500
502.000000	13.355700
501.000000	13.228900
500.000000	13.078700
499.000000	12.949600
498.000000	12.834700
497.000000	12.727200
496.000000	12.616000
495.000000	12.507700
494.000000	12.401000
493.000000	12.296700
492.000000	12.199200
491.000000	12.115400
490.000000	12.018500
489.000000	11.959700
488.000000	11.873300
487.000000	11.782400
486.000000	11.704500
485.000000	11.639300
484.000000	11.547000
483.000000	11.473900
482.000000	11.398100
481.000000	11.302000
480.000000	11.213400
479.000000	11.124500
478.000000	11.030300
477.000000	10.946000
476.000000	10.867300
475.000000	10.777700
474.000000	10.690300
473.000000	10.611700
472.000000	10.518300
471.000000	10.443300
470.000000	10.374400
469.000000	10.293900
468.000000	10.199500
467.000000	10.131000
466.000000	10.050600
465.000000	9.978900
464.000000	9.897500
463.000000	9.827200
462.000000	9.763500
461.000000	9.689600
460.000000	9.631300
459.000000	9.527700
458.000000	9.458400
457.000000	9.361800
456.000000	9.320400
455.000000	9.245100
454.000000	9.176700
453.000000	9.094300
452.000000	9.017600
451.000000	8.938100
450.000000	8.866600
449.000000	8.798700
448.000000	8.710100
447.000000	8.646100
446.000000	8.557600
445.000000	8.484400
444.000000	8.417800
443.000000	8.343600
442.000000	8.261800
441.000000	8.173200
440.000000	8.097500
439.000000	8.031700
438.000000	7.943700
437.000000	7.863700
436.000000	7.789200
435.000000	7.719800
434.000000	7.642800
433.000000	7.576700
432.000000	7.494900
431.000000	7.436000
430.000000	7.349500
429.000000	7.276300
428.000000	7.223800
427.000000	7.155300
426.000000	7.089900
425.000000	7.030100
424.000000	6.958100
423.000000	6.899500
422.000000	6.840800
421.000000	6.767600
420.000000	6.725500
419.000000	6.654500
418.000000	6.597800
417.000000	6.539300
416.000000	6.490700
415.000000	6.440400
414.000000	6.375600
413.000000	6.321100
412.000000	6.266800
411.000000	6.211000
410.000000	6.154500
409.000000	6.100100
408.000000	6.053200
407.000000	5.988500
406.000000	5.950600
405.000000	5.920900
404.000000	5.872200
403.000000	5.823300
402.000000	5.767600
401.000000	5.744300
400.000000	5.711300
399.000000	5.632900
398.000000	5.587200
397.000000	5.567700
396.000000	5.531600
395.000000	5.496700
394.000000	5.436300
393.000000	5.406000
392.000000	5.378100
391.000000	5.332200
390.000000	5.297900
389.000000	5.259800
388.000000	5.237600
387.000000	5.213400
386.000000	5.169600
385.000000	5.141100
384.000000	5.119100
383.000000	5.110900
382.000000	5.072100
381.000000	5.054800
380.000000	5.043200
379.000000	5.024800
378.000000	5.005300
377.000000	4.965000
376.000000	4.918900
375.000000	4.751400
374.000000	4.569400
373.000000	4.708600
372.000000	4.767100
371.000000	4.636700
370.000000	4.617900
369.000000	4.663700
368.000000	4.757900
367.000000	4.702000
366.000000	4.735800
365.000000	4.778200
364.000000	4.773300
363.000000	4.740000
362.000000	4.712500
361.000000	4.814500
360.000000	4.795100
359.000000	4.706400
358.000000	4.782200
357.000000	4.735700
356.000000	4.834300
355.000000	4.861400
354.000000	4.818900
353.000000	4.756600
352.000000	4.696900
351.000000	4.684000
350.000000	4.680500
349.000000	4.693600
348.000000	4.733100
347.000000	4.746800
346.000000	4.759200
345.000000	4.853700
344.000000	4.778500
343.000000	4.798600
342.000000	4.955100
341.000000	4.795600
340.000000	4.602800
339.000000	4.727200
338.000000	4.793500
337.000000	4.593000
336.000000	4.564100
335.000000	4.914000
334.000000	4.992500
333.000000	4.809400
332.000000	4.737000
331.000000	4.754300
330.000000	4.859500
329.000000	5.007600
328.000000	4.974900
327.000000	5.020800
326.000000	4.806500
325.000000	5.005600
324.000000	5.128600
323.000000	4.719800
322.000000	4.848300
321.000000	5.333700
320.000000	5.126400
319.000000	4.809200
318.000000	4.931500
317.000000	5.634300
316.000000	5.372000
315.000000	4.735900
314.000000	4.742600
313.000000	4.745300
312.000000	4.771100
311.000000	4.747800
310.000000	4.683600
309.000000	4.705000
308.000000	4.760300
307.000000	4.768800
306.000000	4.765400
305.000000	4.771600
304.000000	4.756000
303.000000	4.811500
302.000000	4.783800
301.000000	4.790500
300.000000	4.819400
299.000000	4.837400
298.000000	4.849700
297.000000	4.814300
296.000000	4.802200
295.000000	4.835900
294.000000	4.862300
293.000000	4.878100
292.000000	4.852500
291.000000	4.844200
290.000000	4.870500
289.000000	4.864100
288.000000	4.885400
287.000000	4.891200
286.000000	4.893600
285.000000	4.901200
284.000000	4.884100
283.000000	4.906100
282.000000	4.943400
281.000000	4.957100
280.000000	4.943300
279.000000	4.946900
278.000000	4.957900
277.000000	4.973400
276.000000	5.011600
275.000000	5.011100
274.000000	5.048900
273.000000	5.028600
272.000000	5.040100
271.000000	5.051100
270.000000	5.067600
269.000000	5.071200
268.000000	5.061600
267.000000	5.112900
266.000000	5.160700
265.000000	5.149200
264.000000	5.179700
263.000000	5.207800
262.000000	5.201700
261.000000	5.248200
260.000000	5.278600
259.000000	5.256900
258.000000	5.289000
257.000000	5.298100
256.000000	5.296500
255.000000	5.340900
254.000000	5.334600
253.000000	5.385100
252.000000	5.351900
251.000000	5.343300
250.000000	5.358800
