PE UV       SUBTECH     SPECTRUM    ASCII       PEDS        4.00        
   -1
CICIMAUCR0108-1.Sample.ASC
24/04/19
15:08:26.00
24/04/19
15:08:26.00
Vinicio Soto Monge
C. resplendens
250,000000
1
Lambda 1050
1050L1511233
PerkinElmer UV WinLab 6.3.2.0749 / 2.02.05 Lambda 900 UV/VIS/NIR, Aug  7 2015 09:38:08

0
0
3350/servo 860,8/2
0
0
UV/VIS
1
1
1
DoubleDePol,CommonBeamDepol,RBeamAtt,SBeamAtt,60mm sphere, WB InGaAs Detector
0
0
0
0
Program
Program
3350/servo 860,8/2
3350/0,2 860,8/0,2
3350/0,2 860,8/0,2
0
15.00
 
 
 
0
 
860,8
319,2
860,8
Front
100
on
S:100 R:100
0
0
0
0
 
0
 
 
 
0
 
 
0
0
0
0
0
 
 
 
 
0
0


0
0
#HDR
-1
-1
#GR
nm
%R
1.0
0.0
2500,000000
-1,000000
2251
8
90,129700
4,967600
#DATA
2500.000000	7.440700
2499.000000	7.400000
2498.000000	7.360500
2497.000000	7.306800
2496.000000	7.207400
2495.000000	7.240900
2494.000000	7.100100
2493.000000	7.218400
2492.000000	7.109600
2491.000000	7.152200
2490.000000	7.065800
2489.000000	7.002900
2488.000000	7.116200
2487.000000	7.087500
2486.000000	7.092600
2485.000000	7.023200
2484.000000	7.101800
2483.000000	7.021600
2482.000000	7.012200
2481.000000	7.029300
2480.000000	7.017000
2479.000000	6.992700
2478.000000	7.030300
2477.000000	6.992800
2476.000000	7.057300
2475.000000	7.023700
2474.000000	6.989400
2473.000000	7.026700
2472.000000	6.982100
2471.000000	7.020700
2470.000000	7.008100
2469.000000	6.985000
2468.000000	6.974200
2467.000000	6.976700
2466.000000	6.973000
2465.000000	7.054600
2464.000000	7.025400
2463.000000	7.068400
2462.000000	7.083000
2461.000000	7.092900
2460.000000	7.098900
2459.000000	7.146000
2458.000000	7.156600
2457.000000	7.199000
2456.000000	7.267100
2455.000000	7.309700
2454.000000	7.332900
2453.000000	7.376300
2452.000000	7.393100
2451.000000	7.474400
2450.000000	7.517600
2449.000000	7.565700
2448.000000	7.637300
2447.000000	7.672800
2446.000000	7.726200
2445.000000	7.783000
2444.000000	7.840800
2443.000000	7.894000
2442.000000	7.911300
2441.000000	7.941600
2440.000000	8.006400
2439.000000	8.050700
2438.000000	8.097200
2437.000000	8.144000
2436.000000	8.184100
2435.000000	8.224800
2434.000000	8.268000
2433.000000	8.298000
2432.000000	8.325600
2431.000000	8.366100
2430.000000	8.386100
2429.000000	8.411000
2428.000000	8.440300
2427.000000	8.460700
2426.000000	8.489000
2425.000000	8.508100
2424.000000	8.526700
2423.000000	8.564200
2422.000000	8.587700
2421.000000	8.623700
2420.000000	8.647000
2419.000000	8.651600
2418.000000	8.666800
2417.000000	8.680900
2416.000000	8.693900
2415.000000	8.732300
2414.000000	8.732600
2413.000000	8.732300
2412.000000	8.753000
2411.000000	8.771100
2410.000000	8.778600
2409.000000	8.796900
2408.000000	8.823400
2407.000000	8.837000
2406.000000	8.852900
2405.000000	8.851000
2404.000000	8.867800
2403.000000	8.887400
2402.000000	8.903100
2401.000000	8.922000
2400.000000	8.937800
2399.000000	8.949700
2398.000000	8.979000
2397.000000	8.986700
2396.000000	9.003900
2395.000000	9.010000
2394.000000	9.029900
2393.000000	9.057100
2392.000000	9.060000
2391.000000	9.070400
2390.000000	9.086900
2389.000000	9.094000
2388.000000	9.110800
2387.000000	9.127600
2386.000000	9.123100
2385.000000	9.120600
2384.000000	9.114000
2383.000000	9.117100
2382.000000	9.105500
2381.000000	9.091100
2380.000000	9.079400
2379.000000	9.075800
2378.000000	9.057100
2377.000000	9.040900
2376.000000	9.016500
2375.000000	9.003300
2374.000000	8.988000
2373.000000	8.954200
2372.000000	8.930700
2371.000000	8.906700
2370.000000	8.863400
2369.000000	8.836400
2368.000000	8.802400
2367.000000	8.740100
2366.000000	8.694700
2365.000000	8.651000
2364.000000	8.586800
2363.000000	8.531300
2362.000000	8.488700
2361.000000	8.423000
2360.000000	8.364400
2359.000000	8.310500
2358.000000	8.253100
2357.000000	8.222000
2356.000000	8.194700
2355.000000	8.162500
2354.000000	8.134100
2353.000000	8.118800
2352.000000	8.117600
2351.000000	8.118800
2350.000000	8.124800
2349.000000	8.166800
2348.000000	8.205000
2347.000000	8.234400
2346.000000	8.261000
2345.000000	8.300400
2344.000000	8.325600
2343.000000	8.361700
2342.000000	8.413400
2341.000000	8.453600
2340.000000	8.474300
2339.000000	8.478100
2338.000000	8.481100
2337.000000	8.492300
2336.000000	8.488800
2335.000000	8.462900
2334.000000	8.446800
2333.000000	8.427300
2332.000000	8.391900
2331.000000	8.353400
2330.000000	8.305300
2329.000000	8.261500
2328.000000	8.199500
2327.000000	8.144200
2326.000000	8.105000
2325.000000	8.035900
2324.000000	7.951100
2323.000000	7.873100
2322.000000	7.792600
2321.000000	7.714800
2320.000000	7.651900
2319.000000	7.581400
2318.000000	7.489200
2317.000000	7.391900
2316.000000	7.305600
2315.000000	7.222800
2314.000000	7.146900
2313.000000	7.063500
2312.000000	7.001900
2311.000000	6.931400
2310.000000	6.892600
2309.000000	6.849400
2308.000000	6.807400
2307.000000	6.801600
2306.000000	6.793300
2305.000000	6.793800
2304.000000	6.823600
2303.000000	6.866700
2302.000000	6.913400
2301.000000	6.960800
2300.000000	7.014200
2299.000000	7.091400
2298.000000	7.150700
2297.000000	7.223900
2296.000000	7.298000
2295.000000	7.365800
2294.000000	7.436100
2293.000000	7.457300
2292.000000	7.484400
2291.000000	7.533200
2290.000000	7.566500
2289.000000	7.548600
2288.000000	7.545800
2287.000000	7.552300
2286.000000	7.528000
2285.000000	7.489500
2284.000000	7.484400
2283.000000	7.453500
2282.000000	7.425400
2281.000000	7.372100
2280.000000	7.332400
2279.000000	7.297000
2278.000000	7.274100
2277.000000	7.223700
2276.000000	7.205500
2275.000000	7.172600
2274.000000	7.160000
2273.000000	7.135400
2272.000000	7.136300
2271.000000	7.140000
2270.000000	7.174000
2269.000000	7.196500
2268.000000	7.247000
2267.000000	7.304800
2266.000000	7.379600
2265.000000	7.473000
2264.000000	7.576400
2263.000000	7.695000
2262.000000	7.845100
2261.000000	8.004200
2260.000000	8.145600
2259.000000	8.337200
2258.000000	8.531700
2257.000000	8.728000
2256.000000	8.930300
2255.000000	9.110000
2254.000000	9.332200
2253.000000	9.531200
2252.000000	9.704600
2251.000000	9.883500
2250.000000	10.048500
2249.000000	10.217700
2248.000000	10.359100
2247.000000	10.505500
2246.000000	10.632300
2245.000000	10.745100
2244.000000	10.871500
2243.000000	10.985800
2242.000000	11.100000
2241.000000	11.179500
2240.000000	11.255100
2239.000000	11.365700
2238.000000	11.426600
2237.000000	11.507400
2236.000000	11.583500
2235.000000	11.652000
2234.000000	11.702900
2233.000000	11.741400
2232.000000	11.792200
2231.000000	11.826700
2230.000000	11.879400
2229.000000	11.907000
2228.000000	11.940200
2227.000000	11.982100
2226.000000	11.975000
2225.000000	12.007600
2224.000000	12.007400
2223.000000	12.010500
2222.000000	12.012800
2221.000000	12.033500
2220.000000	12.009500
2219.000000	12.022000
2218.000000	11.999000
2217.000000	11.997700
2216.000000	12.006300
2215.000000	12.004700
2214.000000	11.985900
2213.000000	11.973300
2212.000000	11.960800
2211.000000	11.946400
2210.000000	11.947800
2209.000000	11.937400
2208.000000	11.919500
2207.000000	11.924300
2206.000000	11.903600
2205.000000	11.889800
2204.000000	11.885400
2203.000000	11.889400
2202.000000	11.878300
2201.000000	11.880200
2200.000000	11.876400
2199.000000	11.855000
2198.000000	11.860500
2197.000000	11.840200
2196.000000	11.852900
2195.000000	11.866000
2194.000000	11.862400
2193.000000	11.853700
2192.000000	11.848700
2191.000000	11.850800
2190.000000	11.849500
2189.000000	11.840100
2188.000000	11.816500
2187.000000	11.814100
2186.000000	11.813200
2185.000000	11.794500
2184.000000	11.792600
2183.000000	11.769700
2182.000000	11.770800
2181.000000	11.765000
2180.000000	11.746600
2179.000000	11.726900
2178.000000	11.746000
2177.000000	11.738600
2176.000000	11.733500
2175.000000	11.731400
2174.000000	11.733400
2173.000000	11.739300
2172.000000	11.742000
2171.000000	11.734300
2170.000000	11.753900
2169.000000	11.769000
2168.000000	11.775600
2167.000000	11.800600
2166.000000	11.806800
2165.000000	11.817500
2164.000000	11.802600
2163.000000	11.828500
2162.000000	11.848800
2161.000000	11.874600
2160.000000	11.902100
2159.000000	11.897700
2158.000000	11.903000
2157.000000	11.936800
2156.000000	11.954500
2155.000000	11.965800
2154.000000	11.990300
2153.000000	12.008400
2152.000000	12.032300
2151.000000	12.053100
2150.000000	12.083300
2149.000000	12.118700
2148.000000	12.136300
2147.000000	12.160300
2146.000000	12.166300
2145.000000	12.177100
2144.000000	12.187700
2143.000000	12.202100
2142.000000	12.208300
2141.000000	12.228400
2140.000000	12.235200
2139.000000	12.247300
2138.000000	12.247800
2137.000000	12.253000
2136.000000	12.263500
2135.000000	12.265400
2134.000000	12.266000
2133.000000	12.281400
2132.000000	12.267200
2131.000000	12.271500
2130.000000	12.271600
2129.000000	12.263200
2128.000000	12.252900
2127.000000	12.244800
2126.000000	12.232700
2125.000000	12.234500
2124.000000	12.230800
2123.000000	12.205400
2122.000000	12.182200
2121.000000	12.161100
2120.000000	12.157800
2119.000000	12.130600
2118.000000	12.091100
2117.000000	12.059500
2116.000000	12.037200
2115.000000	12.005500
2114.000000	11.979900
2113.000000	11.966300
2112.000000	11.957300
2111.000000	11.936900
2110.000000	11.901500
2109.000000	11.871900
2108.000000	11.851200
2107.000000	11.834600
2106.000000	11.816200
2105.000000	11.779000
2104.000000	11.746200
2103.000000	11.724600
2102.000000	11.719000
2101.000000	11.691700
2100.000000	11.651100
2099.000000	11.641200
2098.000000	11.636900
2097.000000	11.604600
2096.000000	11.581400
2095.000000	11.557400
2094.000000	11.542300
2093.000000	11.553600
2092.000000	11.523800
2091.000000	11.501900
2090.000000	11.506200
2089.000000	11.486300
2088.000000	11.473200
2087.000000	11.456500
2086.000000	11.445900
2085.000000	11.444900
2084.000000	11.434100
2083.000000	11.415400
2082.000000	11.405600
2081.000000	11.389900
2080.000000	11.373400
2079.000000	11.366600
2078.000000	11.348200
2077.000000	11.349900
2076.000000	11.332800
2075.000000	11.323700
2074.000000	11.318700
2073.000000	11.301900
2072.000000	11.313200
2071.000000	11.303200
2070.000000	11.275300
2069.000000	11.259100
2068.000000	11.271100
2067.000000	11.262200
2066.000000	11.246400
2065.000000	11.255400
2064.000000	11.249700
2063.000000	11.246700
2062.000000	11.253300
2061.000000	11.256500
2060.000000	11.268800
2059.000000	11.275700
2058.000000	11.302700
2057.000000	11.338800
2056.000000	11.358900
2055.000000	11.388100
2054.000000	11.421500
2053.000000	11.477400
2052.000000	11.539300
2051.000000	11.603100
2050.000000	11.686200
2049.000000	11.756300
2048.000000	11.826200
2047.000000	11.923100
2046.000000	12.026300
2045.000000	12.108500
2044.000000	12.225900
2043.000000	12.318200
2042.000000	12.415100
2041.000000	12.544500
2040.000000	12.640500
2039.000000	12.740400
2038.000000	12.841600
2037.000000	12.922600
2036.000000	13.013100
2035.000000	13.117500
2034.000000	13.210300
2033.000000	13.298200
2032.000000	13.381400
2031.000000	13.462100
2030.000000	13.550700
2029.000000	13.631100
2028.000000	13.675700
2027.000000	13.727100
2026.000000	13.796500
2025.000000	13.876300
2024.000000	13.949600
2023.000000	13.989600
2022.000000	14.069700
2021.000000	14.107400
2020.000000	14.154500
2019.000000	14.223400
2018.000000	14.279100
2017.000000	14.312400
2016.000000	14.367900
2015.000000	14.392700
2014.000000	14.442700
2013.000000	14.476200
2012.000000	14.480600
2011.000000	14.522500
2010.000000	14.550500
2009.000000	14.570500
2008.000000	14.579800
2007.000000	14.588900
2006.000000	14.611700
2005.000000	14.611800
2004.000000	14.610600
2003.000000	14.610200
2002.000000	14.609700
2001.000000	14.611400
2000.000000	14.594600
1999.000000	14.593000
1998.000000	14.563500
1997.000000	14.546300
1996.000000	14.507800
1995.000000	14.497500
1994.000000	14.474700
1993.000000	14.425500
1992.000000	14.411800
1991.000000	14.379200
1990.000000	14.328000
1989.000000	14.293800
1988.000000	14.251500
1987.000000	14.207600
1986.000000	14.164800
1985.000000	14.111200
1984.000000	14.055200
1983.000000	13.990300
1982.000000	13.967300
1981.000000	13.893600
1980.000000	13.843900
1979.000000	13.794600
1978.000000	13.733800
1977.000000	13.690000
1976.000000	13.631900
1975.000000	13.576800
1974.000000	13.541100
1973.000000	13.498500
1972.000000	13.410200
1971.000000	13.371300
1970.000000	13.336900
1969.000000	13.287800
1968.000000	13.236800
1967.000000	13.178100
1966.000000	13.145600
1965.000000	13.068500
1964.000000	13.043100
1963.000000	12.978900
1962.000000	12.928300
1961.000000	12.879100
1960.000000	12.826400
1959.000000	12.802000
1958.000000	12.734600
1957.000000	12.700300
1956.000000	12.651600
1955.000000	12.602600
1954.000000	12.545100
1953.000000	12.485900
1952.000000	12.456500
1951.000000	12.420800
1950.000000	12.370600
1949.000000	12.335100
1948.000000	12.308900
1947.000000	12.246800
1946.000000	12.229300
1945.000000	12.194500
1944.000000	12.168800
1943.000000	12.163500
1942.000000	12.169700
1941.000000	12.146900
1940.000000	12.159800
1939.000000	12.144800
1938.000000	12.136100
1937.000000	12.147400
1936.000000	12.187800
1935.000000	12.189100
1934.000000	12.230200
1933.000000	12.269400
1932.000000	12.334100
1931.000000	12.388100
1930.000000	12.417600
1929.000000	12.489700
1928.000000	12.543900
1927.000000	12.629600
1926.000000	12.704400
1925.000000	12.789200
1924.000000	12.917400
1923.000000	13.022900
1922.000000	13.116200
1921.000000	13.213700
1920.000000	13.339600
1919.000000	13.436000
1918.000000	13.573600
1917.000000	13.749900
1916.000000	13.900800
1915.000000	14.034800
1914.000000	14.193400
1913.000000	14.350200
1912.000000	14.486800
1911.000000	14.641900
1910.000000	14.829000
1909.000000	15.014600
1908.000000	15.168400
1907.000000	15.358400
1906.000000	15.532200
1905.000000	15.703400
1904.000000	15.890500
1903.000000	16.074000
1902.000000	16.281500
1901.000000	16.478300
1900.000000	16.649900
1899.000000	16.820200
1898.000000	17.007200
1897.000000	17.223000
1896.000000	17.412900
1895.000000	17.619200
1894.000000	17.824300
1893.000000	17.995400
1892.000000	18.189900
1891.000000	18.382300
1890.000000	18.592800
1889.000000	18.787600
1888.000000	18.989600
1887.000000	19.252600
1886.000000	19.514900
1885.000000	19.787700
1884.000000	20.123900
1883.000000	20.464700
1882.000000	20.835600
1881.000000	21.201200
1880.000000	21.544600
1879.000000	21.905700
1878.000000	22.233600
1877.000000	22.527100
1876.000000	22.804000
1875.000000	23.063400
1874.000000	23.286300
1873.000000	23.500400
1872.000000	23.689900
1871.000000	23.838500
1870.000000	23.984500
1869.000000	24.114300
1868.000000	24.191300
1867.000000	24.263600
1866.000000	24.332900
1865.000000	24.399200
1864.000000	24.447800
1863.000000	24.471600
1862.000000	24.498800
1861.000000	24.513100
1860.000000	24.509700
1859.000000	24.494700
1858.000000	24.479800
1857.000000	24.461700
1856.000000	24.436000
1855.000000	24.397400
1854.000000	24.325500
1853.000000	24.237500
1852.000000	24.190100
1851.000000	24.168800
1850.000000	24.166400
1849.000000	24.115300
1848.000000	24.007500
1847.000000	23.911200
1846.000000	23.827900
1845.000000	23.782600
1844.000000	23.775900
1843.000000	23.791200
1842.000000	23.768300
1841.000000	23.714900
1840.000000	23.658000
1839.000000	23.612700
1838.000000	23.577300
1837.000000	23.524900
1836.000000	23.461900
1835.000000	23.400800
1834.000000	23.338800
1833.000000	23.283800
1832.000000	23.243600
1831.000000	23.180800
1830.000000	23.107700
1829.000000	23.034300
1828.000000	22.941900
1827.000000	22.875600
1826.000000	22.810700
1825.000000	22.759100
1824.000000	22.735500
1823.000000	22.740900
1822.000000	22.745800
1821.000000	22.705700
1820.000000	22.654000
1819.000000	22.615500
1818.000000	22.606000
1817.000000	22.608200
1816.000000	22.609400
1815.000000	22.601000
1814.000000	22.609400
1813.000000	22.603500
1812.000000	22.576400
1811.000000	22.539000
1810.000000	22.509200
1809.000000	22.486900
1808.000000	22.452500
1807.000000	22.419900
1806.000000	22.369800
1805.000000	22.317300
1804.000000	22.267500
1803.000000	22.235900
1802.000000	22.210100
1801.000000	22.160700
1800.000000	22.106800
1799.000000	22.055600
1798.000000	22.014600
1797.000000	21.980300
1796.000000	21.950500
1795.000000	21.897300
1794.000000	21.839300
1793.000000	21.805900
1792.000000	21.758000
1791.000000	21.702800
1790.000000	21.644500
1789.000000	21.587700
1788.000000	21.534200
1787.000000	21.467200
1786.000000	21.402500
1785.000000	21.311000
1784.000000	21.233400
1783.000000	21.155200
1782.000000	21.081100
1781.000000	21.027900
1780.000000	20.949500
1779.000000	20.869800
1778.000000	20.776100
1777.000000	20.688000
1776.000000	20.591100
1775.000000	20.482300
1774.000000	20.367100
1773.000000	20.254500
1772.000000	20.134200
1771.000000	20.010900
1770.000000	19.887600
1769.000000	19.772100
1768.000000	19.669300
1767.000000	19.591700
1766.000000	19.508400
1765.000000	19.456500
1764.000000	19.434500
1763.000000	19.411100
1762.000000	19.431600
1761.000000	19.478600
1760.000000	19.547300
1759.000000	19.616800
1758.000000	19.666200
1757.000000	19.714000
1756.000000	19.762100
1755.000000	19.787200
1754.000000	19.800800
1753.000000	19.810600
1752.000000	19.787200
1751.000000	19.752200
1750.000000	19.700100
1749.000000	19.649000
1748.000000	19.579500
1747.000000	19.506600
1746.000000	19.406400
1745.000000	19.266100
1744.000000	19.116600
1743.000000	18.950000
1742.000000	18.769700
1741.000000	18.562700
1740.000000	18.363000
1739.000000	18.162900
1738.000000	17.988200
1737.000000	17.827700
1736.000000	17.708300
1735.000000	17.653700
1734.000000	17.640600
1733.000000	17.657100
1732.000000	17.718200
1731.000000	17.811800
1730.000000	17.903000
1729.000000	18.011900
1728.000000	18.118100
1727.000000	18.207400
1726.000000	18.312700
1725.000000	18.364000
1724.000000	18.401500
1723.000000	18.435900
1722.000000	18.441900
1721.000000	18.436200
1720.000000	18.458200
1719.000000	18.471600
1718.000000	18.480100
1717.000000	18.511600
1716.000000	18.553400
1715.000000	18.594000
1714.000000	18.625800
1713.000000	18.664400
1712.000000	18.718100
1711.000000	18.734000
1710.000000	18.742400
1709.000000	18.721600
1708.000000	18.721800
1707.000000	18.669500
1706.000000	18.654300
1705.000000	18.629800
1704.000000	18.577700
1703.000000	18.505200
1702.000000	18.411300
1701.000000	18.290800
1700.000000	18.159500
1699.000000	18.026000
1698.000000	17.874500
1697.000000	17.792900
1696.000000	17.735400
1695.000000	17.764900
1694.000000	17.823300
1693.000000	17.926100
1692.000000	18.064400
1691.000000	18.198500
1690.000000	18.362200
1689.000000	18.446000
1688.000000	18.471200
1687.000000	18.477800
1686.000000	18.471800
1685.000000	18.483400
1684.000000	18.540200
1683.000000	18.721900
1682.000000	19.026600
1681.000000	19.404800
1680.000000	19.876900
1679.000000	20.353300
1678.000000	20.793100
1677.000000	21.195300
1676.000000	21.584500
1675.000000	21.929000
1674.000000	22.194000
1673.000000	22.425200
1672.000000	22.626100
1671.000000	22.793900
1670.000000	22.953600
1669.000000	23.073400
1668.000000	23.177800
1667.000000	23.260600
1666.000000	23.322200
1665.000000	23.398000
1664.000000	23.454500
1663.000000	23.484300
1662.000000	23.519700
1661.000000	23.569700
1660.000000	23.575000
1659.000000	23.590400
1658.000000	23.604300
1657.000000	23.597000
1656.000000	23.595000
1655.000000	23.579200
1654.000000	23.558600
1653.000000	23.543400
1652.000000	23.520900
1651.000000	23.496600
1650.000000	23.460900
1649.000000	23.428300
1648.000000	23.393600
1647.000000	23.343300
1646.000000	23.287800
1645.000000	23.245800
1644.000000	23.206100
1643.000000	23.140500
1642.000000	23.085700
1641.000000	23.018400
1640.000000	22.962000
1639.000000	22.906200
1638.000000	22.862400
1637.000000	22.786900
1636.000000	22.745400
1635.000000	22.673100
1634.000000	22.625100
1633.000000	22.550200
1632.000000	22.461400
1631.000000	22.400000
1630.000000	22.319600
1629.000000	22.282300
1628.000000	22.210800
1627.000000	22.136900
1626.000000	22.048500
1625.000000	21.981300
1624.000000	21.931000
1623.000000	21.864100
1622.000000	21.808100
1621.000000	21.725400
1620.000000	21.669300
1619.000000	21.599800
1618.000000	21.551300
1617.000000	21.478700
1616.000000	21.402100
1615.000000	21.354000
1614.000000	21.304400
1613.000000	21.245200
1612.000000	21.203300
1611.000000	21.135200
1610.000000	21.074300
1609.000000	21.051100
1608.000000	20.997000
1607.000000	20.951100
1606.000000	20.905200
1605.000000	20.844200
1604.000000	20.791400
1603.000000	20.739000
1602.000000	20.702100
1601.000000	20.665800
1600.000000	20.633000
1599.000000	20.589600
1598.000000	20.543200
1597.000000	20.501600
1596.000000	20.471400
1595.000000	20.451600
1594.000000	20.412500
1593.000000	20.381200
1592.000000	20.346700
1591.000000	20.323100
1590.000000	20.311000
1589.000000	20.289300
1588.000000	20.259800
1587.000000	20.248800
1586.000000	20.233100
1585.000000	20.222800
1584.000000	20.215800
1583.000000	20.206800
1582.000000	20.187400
1581.000000	20.171200
1580.000000	20.175500
1579.000000	20.184400
1578.000000	20.185200
1577.000000	20.196800
1576.000000	20.200700
1575.000000	20.204600
1574.000000	20.223800
1573.000000	20.241000
1572.000000	20.264500
1571.000000	20.285000
1570.000000	20.295900
1569.000000	20.317500
1568.000000	20.353600
1567.000000	20.377400
1566.000000	20.387000
1565.000000	20.414100
1564.000000	20.439200
1563.000000	20.451000
1562.000000	20.487400
1561.000000	20.508700
1560.000000	20.525100
1559.000000	20.546800
1558.000000	20.560500
1557.000000	20.568900
1556.000000	20.572500
1555.000000	20.574800
1554.000000	20.588200
1553.000000	20.590300
1552.000000	20.589000
1551.000000	20.598800
1550.000000	20.596300
1549.000000	20.593500
1548.000000	20.596800
1547.000000	20.592700
1546.000000	20.589500
1545.000000	20.596700
1544.000000	20.593100
1543.000000	20.594300
1542.000000	20.600300
1541.000000	20.595900
1540.000000	20.586400
1539.000000	20.601200
1538.000000	20.598700
1537.000000	20.598200
1536.000000	20.601600
1535.000000	20.595900
1534.000000	20.584000
1533.000000	20.574100
1532.000000	20.569500
1531.000000	20.569400
1530.000000	20.550800
1529.000000	20.526500
1528.000000	20.522900
1527.000000	20.523400
1526.000000	20.501400
1525.000000	20.480100
1524.000000	20.462800
1523.000000	20.438300
1522.000000	20.423300
1521.000000	20.421900
1520.000000	20.410300
1519.000000	20.391200
1518.000000	20.369700
1517.000000	20.356400
1516.000000	20.332400
1515.000000	20.315400
1514.000000	20.296900
1513.000000	20.280200
1512.000000	20.278800
1511.000000	20.250100
1510.000000	20.223300
1509.000000	20.219100
1508.000000	20.207200
1507.000000	20.185500
1506.000000	20.177200
1505.000000	20.162300
1504.000000	20.144000
1503.000000	20.131100
1502.000000	20.117200
1501.000000	20.112200
1500.000000	20.101200
1499.000000	20.090800
1498.000000	20.093300
1497.000000	20.094100
1496.000000	20.100500
1495.000000	20.108500
1494.000000	20.126700
1493.000000	20.135200
1492.000000	20.141900
1491.000000	20.142500
1490.000000	20.153100
1489.000000	20.195700
1488.000000	20.203400
1487.000000	20.220200
1486.000000	20.237900
1485.000000	20.260600
1484.000000	20.275700
1483.000000	20.302000
1482.000000	20.323700
1481.000000	20.375800
1480.000000	20.386700
1479.000000	20.412100
1478.000000	20.454900
1477.000000	20.481200
1476.000000	20.522000
1475.000000	20.556000
1474.000000	20.603600
1473.000000	20.647400
1472.000000	20.682500
1471.000000	20.724500
1470.000000	20.728300
1469.000000	20.754800
1468.000000	20.804300
1467.000000	20.848800
1466.000000	20.904300
1465.000000	20.933400
1464.000000	20.981600
1463.000000	21.036200
1462.000000	21.106100
1461.000000	21.177000
1460.000000	21.234500
1459.000000	21.289100
1458.000000	21.374800
1457.000000	21.435200
1456.000000	21.528300
1455.000000	21.616000
1454.000000	21.685600
1453.000000	21.792600
1452.000000	21.887200
1451.000000	21.979400
1450.000000	22.074300
1449.000000	22.126500
1448.000000	22.264500
1447.000000	22.377300
1446.000000	22.508800
1445.000000	22.583400
1444.000000	22.670600
1443.000000	22.802100
1442.000000	22.884200
1441.000000	23.018100
1440.000000	23.107200
1439.000000	23.212600
1438.000000	23.327800
1437.000000	23.431700
1436.000000	23.519100
1435.000000	23.630700
1434.000000	23.727600
1433.000000	23.841400
1432.000000	23.943400
1431.000000	24.057800
1430.000000	24.175700
1429.000000	24.324600
1428.000000	24.480400
1427.000000	24.613800
1426.000000	24.801500
1425.000000	24.971400
1424.000000	25.156800
1423.000000	25.306100
1422.000000	25.475000
1421.000000	25.667900
1420.000000	25.879900
1419.000000	26.042400
1418.000000	26.210400
1417.000000	26.327800
1416.000000	26.522400
1415.000000	26.716200
1414.000000	26.881800
1413.000000	27.005200
1412.000000	27.128500
1411.000000	27.351800
1410.000000	27.584900
1409.000000	27.825100
1408.000000	28.106700
1407.000000	28.381700
1406.000000	28.672300
1405.000000	28.988900
1404.000000	29.285500
1403.000000	29.596900
1402.000000	29.912200
1401.000000	30.269000
1400.000000	30.509100
1399.000000	30.672000
1398.000000	30.837700
1397.000000	31.036200
1396.000000	31.228200
1395.000000	31.297600
1394.000000	31.372600
1393.000000	31.444600
1392.000000	31.576000
1391.000000	31.684400
1390.000000	31.820600
1389.000000	32.040400
1388.000000	32.243000
1387.000000	32.436100
1386.000000	32.682200
1385.000000	33.013300
1384.000000	33.332300
1383.000000	33.638200
1382.000000	33.843800
1381.000000	33.999200
1380.000000	34.060300
1379.000000	34.101900
1378.000000	34.156900
1377.000000	34.221700
1376.000000	34.325500
1375.000000	34.493200
1374.000000	34.742100
1373.000000	35.061800
1372.000000	35.412700
1371.000000	35.747600
1370.000000	36.023900
1369.000000	36.303900
1368.000000	36.565800
1367.000000	36.772800
1366.000000	36.952800
1365.000000	37.129000
1364.000000	37.311000
1363.000000	37.457500
1362.000000	37.581700
1361.000000	37.652600
1360.000000	37.659600
1359.000000	37.711400
1358.000000	37.810400
1357.000000	37.972900
1356.000000	38.284600
1355.000000	38.723900
1354.000000	39.226700
1353.000000	39.717800
1352.000000	40.298200
1351.000000	40.848700
1350.000000	41.315500
1349.000000	41.737500
1348.000000	42.134400
1347.000000	42.480500
1346.000000	42.800300
1345.000000	43.133200
1344.000000	43.449500
1343.000000	43.741000
1342.000000	44.021100
1341.000000	44.288200
1340.000000	44.521400
1339.000000	44.739200
1338.000000	44.968900
1337.000000	45.186400
1336.000000	45.385700
1335.000000	45.579800
1334.000000	45.773500
1333.000000	45.951700
1332.000000	46.122000
1331.000000	46.284200
1330.000000	46.442100
1329.000000	46.571800
1328.000000	46.704100
1327.000000	46.830800
1326.000000	46.958400
1325.000000	47.069000
1324.000000	47.178800
1323.000000	47.271700
1322.000000	47.365200
1321.000000	47.458000
1320.000000	47.549200
1319.000000	47.635200
1318.000000	47.725300
1317.000000	47.806900
1316.000000	47.871000
1315.000000	47.942100
1314.000000	48.009300
1313.000000	48.069300
1312.000000	48.120000
1311.000000	48.158000
1310.000000	48.209400
1309.000000	48.258300
1308.000000	48.295700
1307.000000	48.323000
1306.000000	48.353600
1305.000000	48.369900
1304.000000	48.378700
1303.000000	48.392000
1302.000000	48.391200
1301.000000	48.374800
1300.000000	48.379000
1299.000000	48.382600
1298.000000	48.373800
1297.000000	48.349600
1296.000000	48.328900
1295.000000	48.328500
1294.000000	48.323200
1293.000000	48.300100
1292.000000	48.260900
1291.000000	48.227700
1290.000000	48.204600
1289.000000	48.171200
1288.000000	48.116800
1287.000000	48.059500
1286.000000	47.998100
1285.000000	47.921200
1284.000000	47.859500
1283.000000	47.789800
1282.000000	47.724400
1281.000000	47.650800
1280.000000	47.568700
1279.000000	47.501400
1278.000000	47.439400
1277.000000	47.372400
1276.000000	47.301100
1275.000000	47.243900
1274.000000	47.188300
1273.000000	47.121200
1272.000000	47.062800
1271.000000	47.010600
1270.000000	46.952900
1269.000000	46.903700
1268.000000	46.852500
1267.000000	46.802900
1266.000000	46.739500
1265.000000	46.669100
1264.000000	46.618800
1263.000000	46.576300
1262.000000	46.511700
1261.000000	46.458200
1260.000000	46.406400
1259.000000	46.339400
1258.000000	46.282400
1257.000000	46.208500
1256.000000	46.136200
1255.000000	46.077600
1254.000000	46.011800
1253.000000	45.928300
1252.000000	45.849700
1251.000000	45.768000
1250.000000	45.669900
1249.000000	45.579000
1248.000000	45.477400
1247.000000	45.367700
1246.000000	45.231300
1245.000000	45.097100
1244.000000	44.971500
1243.000000	44.830100
1242.000000	44.689900
1241.000000	44.534300
1240.000000	44.378200
1239.000000	44.212000
1238.000000	44.049900
1237.000000	43.880500
1236.000000	43.698200
1235.000000	43.516800
1234.000000	43.348400
1233.000000	43.177900
1232.000000	42.994400
1231.000000	42.800400
1230.000000	42.619300
1229.000000	42.434400
1228.000000	42.251500
1227.000000	42.060900
1226.000000	41.883700
1225.000000	41.710800
1224.000000	41.532700
1223.000000	41.356300
1222.000000	41.198500
1221.000000	41.049200
1220.000000	40.885500
1219.000000	40.735800
1218.000000	40.614800
1217.000000	40.496900
1216.000000	40.388800
1215.000000	40.276600
1214.000000	40.165300
1213.000000	40.063800
1212.000000	39.964300
1211.000000	39.893900
1210.000000	39.794700
1209.000000	39.747100
1208.000000	39.705800
1207.000000	39.668700
1206.000000	39.642000
1205.000000	39.634800
1204.000000	39.628600
1203.000000	39.636100
1202.000000	39.632800
1201.000000	39.631200
1200.000000	39.598300
1199.000000	39.535600
1198.000000	39.433700
1197.000000	39.293900
1196.000000	39.115600
1195.000000	38.873000
1194.000000	38.578300
1193.000000	38.185300
1192.000000	37.762800
1191.000000	37.312800
1190.000000	36.903600
1189.000000	36.548100
1188.000000	36.317600
1187.000000	36.205100
1186.000000	36.205600
1185.000000	36.338200
1184.000000	36.600900
1183.000000	36.956000
1182.000000	37.387900
1181.000000	37.880300
1180.000000	38.357300
1179.000000	38.837600
1178.000000	39.217000
1177.000000	39.537100
1176.000000	39.831500
1175.000000	40.106300
1174.000000	40.378800
1173.000000	40.682400
1172.000000	40.975700
1171.000000	41.317900
1170.000000	41.649600
1169.000000	41.952200
1168.000000	42.286600
1167.000000	42.619600
1166.000000	42.945300
1165.000000	43.289700
1164.000000	43.643500
1163.000000	43.993400
1162.000000	44.330000
1161.000000	44.665200
1160.000000	44.977000
1159.000000	45.256000
1158.000000	45.575100
1157.000000	45.832500
1156.000000	46.032500
1155.000000	46.202400
1154.000000	46.267600
1153.000000	46.295700
1152.000000	46.305400
1151.000000	46.276000
1150.000000	46.232000
1149.000000	46.191200
1148.000000	46.163400
1147.000000	46.206600
1146.000000	46.326300
1145.000000	46.506000
1144.000000	46.753700
1143.000000	47.052900
1142.000000	47.360300
1141.000000	47.695000
1140.000000	48.026900
1139.000000	48.347900
1138.000000	48.710000
1137.000000	49.061200
1136.000000	49.415700
1135.000000	49.777100
1134.000000	50.059100
1133.000000	50.294300
1132.000000	50.562600
1131.000000	50.781400
1130.000000	51.011800
1129.000000	51.158300
1128.000000	51.294300
1127.000000	51.387200
1126.000000	51.476300
1125.000000	51.543100
1124.000000	51.614000
1123.000000	51.658200
1122.000000	51.721400
1121.000000	51.745700
1120.000000	51.773100
1119.000000	51.791400
1118.000000	51.793400
1117.000000	51.798000
1116.000000	51.808200
1115.000000	51.806700
1114.000000	51.794900
1113.000000	51.787200
1112.000000	51.782100
1111.000000	51.761900
1110.000000	51.759000
1109.000000	51.737900
1108.000000	51.744900
1107.000000	51.718900
1106.000000	51.735100
1105.000000	51.711700
1104.000000	51.686100
1103.000000	51.691000
1102.000000	51.668000
1101.000000	51.648900
1100.000000	51.644400
1099.000000	51.604300
1098.000000	51.593000
1097.000000	51.575500
1096.000000	51.546800
1095.000000	51.510500
1094.000000	51.469500
1093.000000	51.446500
1092.000000	51.424000
1091.000000	51.379300
1090.000000	51.337600
1089.000000	51.287900
1088.000000	51.251000
1087.000000	51.208900
1086.000000	51.162000
1085.000000	51.114600
1084.000000	51.068200
1083.000000	51.017400
1082.000000	50.981100
1081.000000	50.934800
1080.000000	50.885600
1079.000000	50.864900
1078.000000	50.822400
1077.000000	50.768500
1076.000000	50.718100
1075.000000	50.676000
1074.000000	50.623700
1073.000000	50.572400
1072.000000	50.525100
1071.000000	50.479000
1070.000000	50.436000
1069.000000	50.392700
1068.000000	50.342200
1067.000000	50.294000
1066.000000	50.249700
1065.000000	50.196900
1064.000000	50.147700
1063.000000	50.098000
1062.000000	50.049200
1061.000000	49.993800
1060.000000	49.945500
1059.000000	49.891200
1058.000000	49.844100
1057.000000	49.789600
1056.000000	49.740200
1055.000000	49.704400
1054.000000	49.660300
1053.000000	49.623600
1052.000000	49.594900
1051.000000	49.575900
1050.000000	49.559900
1049.000000	49.526600
1048.000000	49.501900
1047.000000	49.508700
1046.000000	49.510000
1045.000000	49.507900
1044.000000	49.510600
1043.000000	49.522100
1042.000000	49.525900
1041.000000	49.517100
1040.000000	49.529200
1039.000000	49.546400
1038.000000	49.555600
1037.000000	49.569100
1036.000000	49.587500
1035.000000	49.606900
1034.000000	49.622200
1033.000000	49.626800
1032.000000	49.638900
1031.000000	49.669100
1030.000000	49.668500
1029.000000	49.676900
1028.000000	49.694800
1027.000000	49.688800
1026.000000	49.681500
1025.000000	49.663600
1024.000000	49.643000
1023.000000	49.651900
1022.000000	49.661200
1021.000000	49.661100
1020.000000	49.637400
1019.000000	49.621200
1018.000000	49.630500
1017.000000	49.632600
1016.000000	49.634500
1015.000000	49.636900
1014.000000	49.627800
1013.000000	49.639400
1012.000000	49.671100
1011.000000	49.699500
1010.000000	49.736800
1009.000000	49.758800
1008.000000	49.793600
1007.000000	49.825000
1006.000000	49.856800
1005.000000	49.896700
1004.000000	49.940800
1003.000000	49.965700
1002.000000	50.006100
1001.000000	50.052600
1000.000000	50.077500
999.000000	50.129800
998.000000	50.186700
997.000000	50.240600
996.000000	50.308800
995.000000	50.367400
994.000000	50.429600
993.000000	50.490200
992.000000	50.584300
991.000000	50.677900
990.000000	50.762900
989.000000	50.860500
988.000000	50.965000
987.000000	51.079100
986.000000	51.214600
985.000000	51.346600
984.000000	51.492900
983.000000	51.617900
982.000000	51.755700
981.000000	51.917100
980.000000	52.056100
979.000000	52.210100
978.000000	52.356400
977.000000	52.503300
976.000000	52.644600
975.000000	52.823300
974.000000	52.967300
973.000000	53.132500
972.000000	53.307100
971.000000	53.477500
970.000000	53.635700
969.000000	53.804500
968.000000	53.997500
967.000000	54.170000
966.000000	54.358200
965.000000	54.537100
964.000000	54.727200
963.000000	54.911100
962.000000	55.098500
961.000000	55.300400
960.000000	55.485300
959.000000	55.694500
958.000000	55.874200
957.000000	56.052700
956.000000	56.213800
955.000000	56.402200
954.000000	56.591000
953.000000	56.749900
952.000000	56.897300
951.000000	57.036800
950.000000	57.231600
949.000000	57.375000
948.000000	57.520400
947.000000	57.692400
946.000000	57.836900
945.000000	58.005200
944.000000	58.140400
943.000000	58.284200
942.000000	58.418700
941.000000	58.614900
940.000000	58.760400
939.000000	58.896700
938.000000	59.099100
937.000000	59.249200
936.000000	59.423000
935.000000	59.588100
934.000000	59.749100
933.000000	59.953700
932.000000	60.090900
931.000000	60.250100
930.000000	60.448900
929.000000	60.625400
928.000000	60.802400
927.000000	61.022000
926.000000	61.213800
925.000000	61.391100
924.000000	61.577800
923.000000	61.768500
922.000000	61.946400
921.000000	62.216600
920.000000	62.410800
919.000000	62.603900
918.000000	62.791300
917.000000	62.982800
916.000000	63.165600
915.000000	63.342300
914.000000	63.538000
913.000000	63.716300
912.000000	63.978500
911.000000	64.179300
910.000000	64.368300
909.000000	64.515100
908.000000	64.725200
907.000000	65.019800
906.000000	65.251000
905.000000	65.472900
904.000000	65.711500
903.000000	65.941700
902.000000	66.195400
901.000000	66.439900
900.000000	66.696700
899.000000	66.949000
898.000000	67.167100
897.000000	67.412300
896.000000	67.591400
895.000000	67.812600
894.000000	68.054800
893.000000	68.266300
892.000000	68.467500
891.000000	68.630800
890.000000	68.861400
889.000000	69.025300
888.000000	69.181500
887.000000	69.341200
886.000000	69.514400
885.000000	69.702000
884.000000	69.880200
883.000000	70.037700
882.000000	70.123100
881.000000	70.287000
880.000000	70.424800
879.000000	70.517700
878.000000	70.676600
877.000000	70.828100
876.000000	70.952400
875.000000	71.040800
874.000000	71.162400
873.000000	71.209300
872.000000	71.333600
871.000000	71.437400
870.000000	71.490200
869.000000	71.572100
868.000000	71.612600
867.000000	71.665000
866.000000	71.695400
865.000000	71.737200
864.000000	71.703700
863.000000	71.705200
862.000000	71.645500
861.000000	71.612800
860.000000	71.412900
859.000000	71.201200
858.000000	71.935200
857.000000	71.475020
856.000000	71.916040
855.000000	72.458254
854.000000	72.389304
853.000000	72.490313
852.000000	72.549971
851.000000	72.886729
850.000000	73.063750
849.000000	73.454777
848.000000	73.483676
847.000000	73.702885
846.000000	73.917448
845.000000	73.919957
844.000000	74.325758
843.000000	74.518855
842.000000	74.690301
841.000000	74.849109
840.000000	75.307784
839.000000	75.475234
838.000000	75.661455
837.000000	75.836989
836.000000	75.688496
835.000000	75.897297
834.000000	76.094855
833.000000	76.299196
832.000000	76.328653
831.000000	76.362756
830.000000	76.566818
829.000000	76.616812
828.000000	76.620529
827.000000	76.756105
826.000000	76.694682
825.000000	76.869380
824.000000	76.984421
823.000000	77.066009
822.000000	77.036087
821.000000	77.094444
820.000000	77.163115
819.000000	77.056530
818.000000	77.119254
817.000000	77.097045
816.000000	77.027073
815.000000	76.825520
814.000000	76.906086
813.000000	76.793647
812.000000	76.684089
811.000000	76.540335
810.000000	76.437467
809.000000	76.280518
808.000000	76.210267
807.000000	76.162318
806.000000	76.093833
805.000000	75.866353
804.000000	75.867654
803.000000	75.757817
802.000000	75.601704
801.000000	75.677252
800.000000	75.671676
799.000000	75.639989
798.000000	75.584699
797.000000	75.378964
796.000000	75.288270
795.000000	75.338449
794.000000	75.345419
793.000000	75.307505
792.000000	75.231679
791.000000	75.120170
790.000000	75.217554
789.000000	75.204638
788.000000	75.106695
787.000000	75.232236
786.000000	75.250728
785.000000	75.165703
784.000000	75.166074
783.000000	75.205660
782.000000	75.187819
781.000000	75.220900
780.000000	75.171464
779.000000	75.197762
778.000000	75.287062
777.000000	75.279256
776.000000	75.220249
775.000000	75.269685
774.000000	75.344954
773.000000	75.262437
772.000000	75.208541
771.000000	75.177039
770.000000	75.155016
769.000000	75.156317
768.000000	75.140706
767.000000	75.137546
766.000000	75.082442
765.000000	75.041834
764.000000	75.000111
763.000000	74.920939
762.000000	74.939896
761.000000	74.864534
760.000000	74.754697
759.000000	74.706934
758.000000	74.575167
757.000000	74.432157
756.000000	74.393965
755.000000	74.283570
754.000000	74.167508
753.000000	74.046520
752.000000	73.849334
751.000000	73.674357
750.000000	73.547608
749.000000	73.355626
748.000000	73.071370
747.000000	72.874742
746.000000	72.778472
745.000000	72.569299
744.000000	72.331970
743.000000	72.075312
742.000000	71.779348
741.000000	71.496393
740.000000	71.234067
739.000000	70.961891
738.000000	70.577091
737.000000	70.209295
736.000000	69.837411
735.000000	69.516915
734.000000	69.181550
733.000000	68.787736
732.000000	68.447075
731.000000	68.128809
730.000000	67.735924
729.000000	67.364597
728.000000	66.987045
727.000000	66.602524
726.000000	66.284722
725.000000	66.033268
724.000000	65.666216
723.000000	65.296377
722.000000	65.026431
721.000000	64.729351
720.000000	64.483380
719.000000	64.229046
718.000000	63.969229
717.000000	63.839785
716.000000	63.694730
715.000000	63.516222
714.000000	63.353976
713.000000	63.289022
712.000000	63.245347
711.000000	63.163945
710.000000	63.126868
709.000000	63.104009
708.000000	63.103080
707.000000	63.123430
706.000000	63.180486
705.000000	63.154932
704.000000	63.192101
703.000000	63.315226
702.000000	63.421346
701.000000	63.465299
700.000000	63.474406
699.000000	63.535736
698.000000	63.640741
697.000000	63.716846
696.000000	63.773437
695.000000	63.809027
694.000000	63.890522
693.000000	63.969136
692.000000	63.996363
691.000000	64.036042
690.000000	64.061968
689.000000	64.077114
688.000000	64.088544
687.000000	64.094212
686.000000	64.042732
685.000000	63.965698
684.000000	63.958357
683.000000	63.902974
682.000000	63.789885
681.000000	63.642228
680.000000	63.496429
679.000000	63.337249
678.000000	63.060799
677.000000	62.805164
676.000000	62.527412
675.000000	62.211748
674.000000	61.864024
673.000000	61.490654
672.000000	61.099627
671.000000	60.635005
670.000000	60.207180
669.000000	59.697397
668.000000	59.174603
667.000000	58.651160
666.000000	58.032840
665.000000	57.418330
664.000000	56.801683
663.000000	56.162270
662.000000	55.479925
661.000000	54.811984
660.000000	54.148689
659.000000	53.505372
658.000000	52.869397
657.000000	52.283787
656.000000	51.657661
655.000000	51.066383
654.000000	50.534204
653.000000	50.026743
652.000000	49.572064
651.000000	49.168771
650.000000	48.853293
649.000000	48.593848
648.000000	48.459757
647.000000	48.389321
646.000000	48.402888
645.000000	48.528057
644.000000	48.749775
643.000000	49.101308
642.000000	49.477560
641.000000	49.943669
640.000000	50.476870
639.000000	51.129850
638.000000	51.771122
637.000000	52.525205
636.000000	53.310881
635.000000	54.148596
634.000000	55.041879
633.000000	55.909236
632.000000	56.894608
631.000000	57.941960
630.000000	58.985874
629.000000	60.024863
628.000000	61.057440
627.000000	62.122726
626.000000	63.209664
625.000000	64.255901
624.000000	65.331595
623.000000	66.397625
622.000000	67.402697
621.000000	68.423844
620.000000	69.311273
619.000000	70.292649
618.000000	71.132779
617.000000	71.971516
616.000000	72.774383
615.000000	73.559410
614.000000	74.191389
613.000000	74.883584
612.000000	75.467707
611.000000	76.099222
610.000000	76.641808
609.000000	77.218869
608.000000	77.717317
607.000000	78.198108
606.000000	78.691909
605.000000	79.131906
604.000000	79.593741
603.000000	80.069979
602.000000	80.464537
601.000000	80.863926
600.000000	81.238319
599.000000	81.583162
598.000000	81.905796
597.000000	82.124354
596.000000	82.344771
595.000000	82.592136
594.000000	82.775848
593.000000	83.002305
592.000000	83.154236
591.000000	83.300592
590.000000	83.367777
589.000000	83.435333
588.000000	83.502796
587.000000	83.580946
586.000000	83.615792
585.000000	83.648223
584.000000	83.695429
583.000000	83.707044
582.000000	83.746537
581.000000	83.741705
580.000000	83.746909
579.000000	83.752577
578.000000	83.702584
577.000000	83.632890
576.000000	83.566728
575.000000	83.501495
574.000000	83.390822
573.000000	83.347333
572.000000	83.201349
571.000000	83.091698
570.000000	82.961046
569.000000	82.757728
568.000000	82.558590
567.000000	82.401548
566.000000	82.204362
565.000000	81.979206
564.000000	81.743921
563.000000	81.524619
562.000000	81.273073
561.000000	80.943377
560.000000	80.646762
559.000000	80.279431
558.000000	79.899834
557.000000	79.571904
556.000000	79.196675
555.000000	78.785855
554.000000	78.357381
553.000000	77.896661
552.000000	77.405183
551.000000	76.950504
550.000000	76.355694
549.000000	75.754008
548.000000	75.181128
547.000000	74.493394
546.000000	73.813001
545.000000	73.042285
544.000000	72.262462
543.000000	71.411088
542.000000	70.503401
541.000000	69.535593
540.000000	68.505525
539.000000	67.469509
538.000000	66.389076
537.000000	65.252331
536.000000	64.104713
535.000000	62.952077
534.000000	61.771936
533.000000	60.574325
532.000000	59.355620
531.000000	58.155593
530.000000	56.945252
529.000000	55.776633
528.000000	54.605505
527.000000	53.429918
526.000000	52.300141
525.000000	51.135890
524.000000	50.009738
523.000000	48.869740
522.000000	47.781502
521.000000	46.710918
520.000000	45.660221
519.000000	44.639074
518.000000	43.672380
517.000000	42.738396
516.000000	41.851896
515.000000	41.006840
514.000000	40.197840
513.000000	39.414114
512.000000	38.640518
511.000000	37.935128
510.000000	37.251390
509.000000	36.619410
508.000000	36.008896
507.000000	35.386302
506.000000	34.813236
505.000000	34.260614
504.000000	33.738936
503.000000	33.220046
502.000000	32.730612
501.000000	32.289407
500.000000	31.859259
499.000000	31.429019
498.000000	31.042825
497.000000	30.677074
496.000000	30.324147
495.000000	29.967409
494.000000	29.641151
493.000000	29.321026
492.000000	29.018557
491.000000	28.711813
490.000000	28.440102
489.000000	28.213831
488.000000	27.980683
487.000000	27.780710
486.000000	27.597927
485.000000	27.438190
484.000000	27.287095
483.000000	27.165364
482.000000	27.056085
481.000000	26.954146
480.000000	26.861594
479.000000	26.796361
478.000000	26.747204
477.000000	26.714773
476.000000	26.686245
475.000000	26.671749
474.000000	26.675838
473.000000	26.689126
472.000000	26.705480
471.000000	26.721742
470.000000	26.737539
469.000000	26.743022
468.000000	26.751757
467.000000	26.730384
466.000000	26.705388
465.000000	26.674444
464.000000	26.639225
463.000000	26.619525
462.000000	26.561076
461.000000	26.503184
460.000000	26.419366
459.000000	26.332389
458.000000	26.247827
457.000000	26.128977
456.000000	26.004737
455.000000	25.874735
454.000000	25.731167
453.000000	25.570036
452.000000	25.402586
451.000000	25.227052
450.000000	25.029680
449.000000	24.805453
448.000000	24.567752
447.000000	24.323082
446.000000	24.047840
445.000000	23.752340
444.000000	23.466969
443.000000	23.175557
442.000000	22.832945
441.000000	22.484385
440.000000	22.146976
439.000000	21.791168
438.000000	21.419284
437.000000	21.051675
436.000000	20.643922
435.000000	20.212381
434.000000	19.804256
433.000000	19.383215
432.000000	18.930673
431.000000	18.468559
430.000000	18.024009
429.000000	17.573511
428.000000	17.111211
427.000000	16.661364
426.000000	16.205476
425.000000	15.735836
424.000000	15.284873
423.000000	14.843296
422.000000	14.379788
421.000000	13.912471
420.000000	13.473496
419.000000	13.041954
418.000000	12.625281
417.000000	12.228307
416.000000	11.828081
415.000000	11.437055
414.000000	11.070840
413.000000	10.712244
412.000000	10.357737
411.000000	10.027669
410.000000	9.722040
409.000000	9.429886
408.000000	9.145165
407.000000	8.888601
406.000000	8.641886
405.000000	8.404929
404.000000	8.194640
403.000000	7.987883
402.000000	7.785308
401.000000	7.613398
400.000000	7.440093
399.000000	7.271250
398.000000	7.149518
397.000000	7.015335
396.000000	6.879852
395.000000	6.780051
394.000000	6.663430
393.000000	6.566696
392.000000	6.479440
391.000000	6.379267
390.000000	6.292940
389.000000	6.229938
388.000000	6.162846
387.000000	6.099936
386.000000	6.037863
385.000000	5.971050
384.000000	5.910649
383.000000	5.855638
382.000000	5.818003
381.000000	5.757695
380.000000	5.717552
379.000000	5.687630
378.000000	5.645814
377.000000	5.610317
376.000000	5.649252
375.000000	5.560509
374.000000	5.532725
373.000000	5.547128
372.000000	5.476041
371.000000	5.454111
370.000000	5.432645
369.000000	5.404582
368.000000	5.388042
367.000000	5.368620
366.000000	5.309892
365.000000	5.289635
364.000000	5.243544
363.000000	5.198476
362.000000	5.194480
361.000000	5.216689
360.000000	5.162328
359.000000	5.158239
358.000000	5.121720
357.000000	5.061226
356.000000	5.013649
355.000000	4.978430
354.000000	4.979174
353.000000	4.951389
352.000000	4.913290
351.000000	4.932433
350.000000	4.880767
349.000000	4.861996
348.000000	4.869523
347.000000	4.823153
346.000000	4.833654
345.000000	4.864226
344.000000	4.843411
343.000000	4.781895
342.000000	4.820180
341.000000	4.766470
340.000000	4.787563
339.000000	4.818972
338.000000	4.798343
337.000000	4.777156
336.000000	4.791838
335.000000	4.856978
334.000000	4.809772
333.000000	4.776412
332.000000	4.748163
331.000000	4.856328
330.000000	4.738128
329.000000	4.813582
328.000000	4.769629
327.000000	4.737663
326.000000	4.793139
325.000000	4.766377
324.000000	4.737105
323.000000	4.727070
322.000000	4.745097
321.000000	4.812932
320.000000	4.792674
319.000000	4.616118
318.000000	4.665182
317.000000	4.728278
316.000000	4.772510
315.000000	4.762195
314.000000	4.779479
313.000000	4.808378
312.000000	4.783010
311.000000	4.773346
310.000000	4.786448
309.000000	4.796484
308.000000	4.791187
307.000000	4.775669
306.000000	4.810609
305.000000	4.840252
304.000000	4.810144
303.000000	4.815905
302.000000	4.831610
301.000000	4.843876
300.000000	4.829751
299.000000	4.829101
298.000000	4.785054
297.000000	4.857164
296.000000	4.836535
295.000000	4.856420
294.000000	4.834119
293.000000	4.834026
292.000000	4.843039
291.000000	4.837371
290.000000	4.863018
289.000000	4.869523
288.000000	4.891732
287.000000	4.844340
286.000000	4.913662
285.000000	4.860045
284.000000	4.878629
283.000000	4.944699
282.000000	4.964492
281.000000	4.955943
280.000000	4.936707
279.000000	4.918308
278.000000	4.951854
277.000000	4.937451
276.000000	4.975457
275.000000	4.973877
274.000000	4.989395
273.000000	5.011976
272.000000	5.013184
271.000000	5.001940
270.000000	5.044593
269.000000	5.103135
268.000000	5.063363
267.000000	5.099046
266.000000	5.118468
265.000000	5.139004
264.000000	5.164186
263.000000	5.147646
262.000000	5.209348
261.000000	5.183701
260.000000	5.228118
259.000000	5.248283
258.000000	5.285174
257.000000	5.302179
256.000000	5.271979
255.000000	5.282479
254.000000	5.292701
253.000000	5.325410
252.000000	5.313516
251.000000	5.320857
250.000000	5.320207
