PE UV       SUBTECH     SPECTRUM    ASCII       PEDS        4.00        
   -1
CICIMAUCR0112-3.Sample.ASC
24/04/22
10:19:40.00
24/04/22
10:19:40.00
Vinicio Soto Monge
C. resplendens
250,000000
1
Lambda 1050
1050L1511233
PerkinElmer UV WinLab 6.3.2.0749 / 2.02.05 Lambda 900 UV/VIS/NIR, Aug  7 2015 09:38:08

0
0
3350/servo 860,8/2
0
0
UV/VIS
1
1
1
DoubleDePol,CommonBeamDepol,RBeamAtt,SBeamAtt,60mm sphere, WB InGaAs Detector
0
0
0
0
Program
Program
3350/servo 860,8/2
3350/0,2 860,8/0,2
3350/0,2 860,8/0,2
0
15.00
 
 
 
0
 
860,8
319,2
860,8
Front
100
on
S:100 R:100
0
0
0
0
 
0
 
 
 
0
 
 
0
0
0
0
0
 
 
 
 
0
0


0
0
#HDR
-1
-1
#GR
nm
%R
1.0
0.0
2500,000000
-1,000000
2251
8
88,787000
5,681000
#DATA
2500.000000	15.397900
2499.000000	15.398900
2498.000000	15.364100
2497.000000	15.268700
2496.000000	15.257100
2495.000000	15.222800
2494.000000	15.247100
2493.000000	15.188400
2492.000000	15.124300
2491.000000	15.190400
2490.000000	15.104100
2489.000000	15.111700
2488.000000	15.117500
2487.000000	15.124300
2486.000000	15.098200
2485.000000	15.020500
2484.000000	14.991700
2483.000000	15.056100
2482.000000	15.055000
2481.000000	15.068200
2480.000000	15.053500
2479.000000	15.099700
2478.000000	15.149600
2477.000000	15.135200
2476.000000	15.130400
2475.000000	15.140000
2474.000000	15.181300
2473.000000	15.233300
2472.000000	15.222900
2471.000000	15.287100
2470.000000	15.320100
2469.000000	15.352200
2468.000000	15.387700
2467.000000	15.430900
2466.000000	15.485100
2465.000000	15.542400
2464.000000	15.619000
2463.000000	15.681700
2462.000000	15.708400
2461.000000	15.849000
2460.000000	15.903700
2459.000000	15.989400
2458.000000	16.125200
2457.000000	16.230600
2456.000000	16.328500
2455.000000	16.455400
2454.000000	16.576200
2453.000000	16.702000
2452.000000	16.825800
2451.000000	16.972300
2450.000000	17.113200
2449.000000	17.251700
2448.000000	17.380200
2447.000000	17.531600
2446.000000	17.663500
2445.000000	17.838200
2444.000000	17.972200
2443.000000	18.115700
2442.000000	18.296100
2441.000000	18.408800
2440.000000	18.547000
2439.000000	18.704400
2438.000000	18.840800
2437.000000	18.960000
2436.000000	19.097400
2435.000000	19.245300
2434.000000	19.379900
2433.000000	19.497200
2432.000000	19.621900
2431.000000	19.735200
2430.000000	19.852000
2429.000000	19.970300
2428.000000	20.078700
2427.000000	20.185600
2426.000000	20.292700
2425.000000	20.390400
2424.000000	20.442400
2423.000000	20.491300
2422.000000	20.546600
2421.000000	20.602100
2420.000000	20.654800
2419.000000	20.739000
2418.000000	20.817600
2417.000000	20.887400
2416.000000	20.962000
2415.000000	21.017800
2414.000000	21.078700
2413.000000	21.101700
2412.000000	21.141100
2411.000000	21.195900
2410.000000	21.244600
2409.000000	21.289600
2408.000000	21.314400
2407.000000	21.334100
2406.000000	21.379400
2405.000000	21.431900
2404.000000	21.462600
2403.000000	21.480000
2402.000000	21.495800
2401.000000	21.529200
2400.000000	21.581400
2399.000000	21.603100
2398.000000	21.605700
2397.000000	21.634000
2396.000000	21.652500
2395.000000	21.667400
2394.000000	21.690400
2393.000000	21.690700
2392.000000	21.695900
2391.000000	21.717700
2390.000000	21.719300
2389.000000	21.709900
2388.000000	21.703100
2387.000000	21.703700
2386.000000	21.690100
2385.000000	21.670700
2384.000000	21.649500
2383.000000	21.620000
2382.000000	21.592100
2381.000000	21.566000
2380.000000	21.535700
2379.000000	21.488500
2378.000000	21.439400
2377.000000	21.405800
2376.000000	21.350900
2375.000000	21.293800
2374.000000	21.260000
2373.000000	21.227300
2372.000000	21.171300
2371.000000	21.101700
2370.000000	21.042000
2369.000000	20.998300
2368.000000	20.951900
2367.000000	20.895900
2366.000000	20.836900
2365.000000	20.776400
2364.000000	20.707100
2363.000000	20.638300
2362.000000	20.578000
2361.000000	20.519800
2360.000000	20.459700
2359.000000	20.390000
2358.000000	20.329300
2357.000000	20.268800
2356.000000	20.225500
2355.000000	20.189600
2354.000000	20.166000
2353.000000	20.146600
2352.000000	20.119600
2351.000000	20.102300
2350.000000	20.093700
2349.000000	20.090300
2348.000000	20.099300
2347.000000	20.102100
2346.000000	20.104500
2345.000000	20.111400
2344.000000	20.118400
2343.000000	20.140400
2342.000000	20.149900
2341.000000	20.128800
2340.000000	20.126900
2339.000000	20.120500
2338.000000	20.103900
2337.000000	20.092300
2336.000000	20.073900
2335.000000	20.049400
2334.000000	20.009800
2333.000000	19.984900
2332.000000	19.963100
2331.000000	19.924100
2330.000000	19.871400
2329.000000	19.843400
2328.000000	19.808300
2327.000000	19.753400
2326.000000	19.687400
2325.000000	19.619400
2324.000000	19.556800
2323.000000	19.469500
2322.000000	19.387600
2321.000000	19.295400
2320.000000	19.201800
2319.000000	19.090100
2318.000000	18.965500
2317.000000	18.823600
2316.000000	18.708900
2315.000000	18.585400
2314.000000	18.445500
2313.000000	18.345000
2312.000000	18.237600
2311.000000	18.127000
2310.000000	18.042200
2309.000000	17.966900
2308.000000	17.910400
2307.000000	17.887000
2306.000000	17.855300
2305.000000	17.862200
2304.000000	17.904200
2303.000000	17.928400
2302.000000	17.977200
2301.000000	18.018100
2300.000000	18.088600
2299.000000	18.160500
2298.000000	18.246700
2297.000000	18.318800
2296.000000	18.410000
2295.000000	18.486500
2294.000000	18.553600
2293.000000	18.621200
2292.000000	18.674300
2291.000000	18.707300
2290.000000	18.748200
2289.000000	18.777300
2288.000000	18.799800
2287.000000	18.795000
2286.000000	18.820800
2285.000000	18.802200
2284.000000	18.801900
2283.000000	18.792900
2282.000000	18.799600
2281.000000	18.785100
2280.000000	18.739600
2279.000000	18.720300
2278.000000	18.704600
2277.000000	18.689400
2276.000000	18.657600
2275.000000	18.658900
2274.000000	18.664700
2273.000000	18.667000
2272.000000	18.692700
2271.000000	18.738500
2270.000000	18.780600
2269.000000	18.867900
2268.000000	18.968700
2267.000000	19.113400
2266.000000	19.255500
2265.000000	19.442200
2264.000000	19.646100
2263.000000	19.868600
2262.000000	20.116200
2261.000000	20.395200
2260.000000	20.689800
2259.000000	20.990100
2258.000000	21.288100
2257.000000	21.603200
2256.000000	21.943300
2255.000000	22.281000
2254.000000	22.599800
2253.000000	22.903300
2252.000000	23.226600
2251.000000	23.533300
2250.000000	23.833000
2249.000000	24.070800
2248.000000	24.312200
2247.000000	24.552900
2246.000000	24.781300
2245.000000	24.993000
2244.000000	25.176500
2243.000000	25.341400
2242.000000	25.486600
2241.000000	25.646500
2240.000000	25.736500
2239.000000	25.846000
2238.000000	25.941300
2237.000000	26.016300
2236.000000	26.063200
2235.000000	26.132900
2234.000000	26.129800
2233.000000	26.176600
2232.000000	26.185800
2231.000000	26.163400
2230.000000	26.164700
2229.000000	26.143900
2228.000000	26.087900
2227.000000	26.033700
2226.000000	25.970300
2225.000000	25.911000
2224.000000	25.821700
2223.000000	25.757000
2222.000000	25.667300
2221.000000	25.553500
2220.000000	25.479600
2219.000000	25.353400
2218.000000	25.247600
2217.000000	25.158900
2216.000000	25.045600
2215.000000	24.967900
2214.000000	24.860700
2213.000000	24.766900
2212.000000	24.699600
2211.000000	24.608000
2210.000000	24.535900
2209.000000	24.460400
2208.000000	24.399600
2207.000000	24.347700
2206.000000	24.287300
2205.000000	24.219500
2204.000000	24.193900
2203.000000	24.124000
2202.000000	24.089100
2201.000000	24.056800
2200.000000	24.026600
2199.000000	23.993200
2198.000000	23.945500
2197.000000	23.912800
2196.000000	23.902900
2195.000000	23.875100
2194.000000	23.839500
2193.000000	23.834300
2192.000000	23.817400
2191.000000	23.804800
2190.000000	23.780100
2189.000000	23.750100
2188.000000	23.719600
2187.000000	23.711200
2186.000000	23.684100
2185.000000	23.667600
2184.000000	23.635900
2183.000000	23.623900
2182.000000	23.586800
2181.000000	23.570400
2180.000000	23.542400
2179.000000	23.533600
2178.000000	23.533800
2177.000000	23.528400
2176.000000	23.493300
2175.000000	23.491500
2174.000000	23.515800
2173.000000	23.517900
2172.000000	23.531400
2171.000000	23.554700
2170.000000	23.592900
2169.000000	23.608600
2168.000000	23.639500
2167.000000	23.687000
2166.000000	23.727800
2165.000000	23.772700
2164.000000	23.845500
2163.000000	23.893800
2162.000000	23.965100
2161.000000	24.063900
2160.000000	24.140100
2159.000000	24.234000
2158.000000	24.324000
2157.000000	24.461200
2156.000000	24.573100
2155.000000	24.674800
2154.000000	24.786600
2153.000000	24.913600
2152.000000	25.051200
2151.000000	25.171300
2150.000000	25.294500
2149.000000	25.400900
2148.000000	25.536100
2147.000000	25.662400
2146.000000	25.775300
2145.000000	25.896700
2144.000000	26.007600
2143.000000	26.139000
2142.000000	26.253900
2141.000000	26.352600
2140.000000	26.457000
2139.000000	26.570800
2138.000000	26.680600
2137.000000	26.775400
2136.000000	26.870600
2135.000000	26.938900
2134.000000	27.033900
2133.000000	27.115400
2132.000000	27.198300
2131.000000	27.271300
2130.000000	27.321700
2129.000000	27.373800
2128.000000	27.439900
2127.000000	27.480900
2126.000000	27.515200
2125.000000	27.544700
2124.000000	27.575900
2123.000000	27.604100
2122.000000	27.626600
2121.000000	27.640200
2120.000000	27.634900
2119.000000	27.637700
2118.000000	27.632300
2117.000000	27.628800
2116.000000	27.621300
2115.000000	27.623500
2114.000000	27.611900
2113.000000	27.578700
2112.000000	27.567800
2111.000000	27.549400
2110.000000	27.521100
2109.000000	27.507800
2108.000000	27.476700
2107.000000	27.446100
2106.000000	27.429000
2105.000000	27.393100
2104.000000	27.361100
2103.000000	27.337800
2102.000000	27.308400
2101.000000	27.280400
2100.000000	27.246800
2099.000000	27.225300
2098.000000	27.212600
2097.000000	27.198700
2096.000000	27.189900
2095.000000	27.190600
2094.000000	27.189900
2093.000000	27.185300
2092.000000	27.184400
2091.000000	27.182300
2090.000000	27.183200
2089.000000	27.184500
2088.000000	27.176800
2087.000000	27.171000
2086.000000	27.160800
2085.000000	27.144300
2084.000000	27.109800
2083.000000	27.065100
2082.000000	27.023700
2081.000000	26.979200
2080.000000	26.913100
2079.000000	26.840800
2078.000000	26.767600
2077.000000	26.687100
2076.000000	26.593800
2075.000000	26.508700
2074.000000	26.414700
2073.000000	26.298900
2072.000000	26.183100
2071.000000	26.054500
2070.000000	25.938700
2069.000000	25.807700
2068.000000	25.672900
2067.000000	25.558600
2066.000000	25.424800
2065.000000	25.304100
2064.000000	25.194000
2063.000000	25.074700
2062.000000	24.962100
2061.000000	24.859400
2060.000000	24.776500
2059.000000	24.705500
2058.000000	24.656400
2057.000000	24.632400
2056.000000	24.631600
2055.000000	24.643100
2054.000000	24.684400
2053.000000	24.752300
2052.000000	24.845700
2051.000000	24.969400
2050.000000	25.122400
2049.000000	25.292600
2048.000000	25.472700
2047.000000	25.680700
2046.000000	25.903200
2045.000000	26.133000
2044.000000	26.372500
2043.000000	26.616800
2042.000000	26.838400
2041.000000	27.116100
2040.000000	27.349000
2039.000000	27.580000
2038.000000	27.785000
2037.000000	27.999900
2036.000000	28.204500
2035.000000	28.411200
2034.000000	28.618400
2033.000000	28.769700
2032.000000	28.938200
2031.000000	29.110100
2030.000000	29.261700
2029.000000	29.412400
2028.000000	29.555600
2027.000000	29.672900
2026.000000	29.792600
2025.000000	29.903500
2024.000000	30.022800
2023.000000	30.140100
2022.000000	30.236100
2021.000000	30.319100
2020.000000	30.407800
2019.000000	30.491600
2018.000000	30.558500
2017.000000	30.628000
2016.000000	30.668500
2015.000000	30.728100
2014.000000	30.772600
2013.000000	30.830700
2012.000000	30.871900
2011.000000	30.887900
2010.000000	30.896600
2009.000000	30.915700
2008.000000	30.900200
2007.000000	30.905500
2006.000000	30.889900
2005.000000	30.862800
2004.000000	30.856000
2003.000000	30.809600
2002.000000	30.759200
2001.000000	30.729000
2000.000000	30.673300
1999.000000	30.637500
1998.000000	30.558200
1997.000000	30.476000
1996.000000	30.393400
1995.000000	30.306200
1994.000000	30.207500
1993.000000	30.097500
1992.000000	30.026300
1991.000000	29.928300
1990.000000	29.813900
1989.000000	29.698000
1988.000000	29.577400
1987.000000	29.463300
1986.000000	29.338600
1985.000000	29.228100
1984.000000	29.103600
1983.000000	28.967900
1982.000000	28.870800
1981.000000	28.743500
1980.000000	28.602400
1979.000000	28.479300
1978.000000	28.373300
1977.000000	28.231000
1976.000000	28.132200
1975.000000	28.003800
1974.000000	27.908700
1973.000000	27.785700
1972.000000	27.671000
1971.000000	27.566200
1970.000000	27.444200
1969.000000	27.323700
1968.000000	27.217200
1967.000000	27.140000
1966.000000	27.002200
1965.000000	26.911900
1964.000000	26.811600
1963.000000	26.691600
1962.000000	26.601300
1961.000000	26.469600
1960.000000	26.387700
1959.000000	26.255300
1958.000000	26.146100
1957.000000	26.047000
1956.000000	25.930000
1955.000000	25.820700
1954.000000	25.716100
1953.000000	25.607700
1952.000000	25.503500
1951.000000	25.415400
1950.000000	25.341500
1949.000000	25.238900
1948.000000	25.189600
1947.000000	25.089500
1946.000000	25.026200
1945.000000	24.981100
1944.000000	24.914900
1943.000000	24.867400
1942.000000	24.844100
1941.000000	24.834600
1940.000000	24.835000
1939.000000	24.844700
1938.000000	24.872200
1937.000000	24.903700
1936.000000	24.926300
1935.000000	24.953800
1934.000000	25.004900
1933.000000	25.088300
1932.000000	25.172100
1931.000000	25.287400
1930.000000	25.412100
1929.000000	25.570000
1928.000000	25.728100
1927.000000	25.879500
1926.000000	26.080700
1925.000000	26.258500
1924.000000	26.413300
1923.000000	26.650600
1922.000000	26.928200
1921.000000	27.258100
1920.000000	27.546200
1919.000000	27.817200
1918.000000	28.081900
1917.000000	28.328200
1916.000000	28.604300
1915.000000	28.972100
1914.000000	29.428800
1913.000000	29.903600
1912.000000	30.316900
1911.000000	30.683500
1910.000000	31.010400
1909.000000	31.325800
1908.000000	31.765400
1907.000000	32.273300
1906.000000	32.894900
1905.000000	33.528200
1904.000000	34.062200
1903.000000	34.555200
1902.000000	35.049600
1901.000000	35.634800
1900.000000	36.295600
1899.000000	36.926200
1898.000000	37.563600
1897.000000	38.072800
1896.000000	38.525400
1895.000000	39.039700
1894.000000	39.618000
1893.000000	40.264400
1892.000000	40.974600
1891.000000	41.639300
1890.000000	42.203400
1889.000000	42.764000
1888.000000	43.340700
1887.000000	43.881200
1886.000000	44.467500
1885.000000	45.091500
1884.000000	45.716400
1883.000000	46.265000
1882.000000	46.770100
1881.000000	47.248700
1880.000000	47.651400
1879.000000	48.101300
1878.000000	48.522000
1877.000000	48.945900
1876.000000	49.326000
1875.000000	49.696800
1874.000000	50.062900
1873.000000	50.419900
1872.000000	50.747200
1871.000000	51.018800
1870.000000	51.247600
1869.000000	51.443500
1868.000000	51.531000
1867.000000	51.582000
1866.000000	51.618900
1865.000000	51.653000
1864.000000	51.696500
1863.000000	51.783900
1862.000000	51.893700
1861.000000	52.000400
1860.000000	52.106600
1859.000000	52.184500
1858.000000	52.222800
1857.000000	52.220900
1856.000000	52.236600
1855.000000	52.271500
1854.000000	52.263900
1853.000000	52.229500
1852.000000	52.204000
1851.000000	52.144200
1850.000000	52.146500
1849.000000	52.238000
1848.000000	52.268300
1847.000000	52.224500
1846.000000	52.086000
1845.000000	51.934000
1844.000000	51.830800
1843.000000	51.875900
1842.000000	51.922900
1841.000000	51.877900
1840.000000	51.824000
1839.000000	51.742200
1838.000000	51.689400
1837.000000	51.629700
1836.000000	51.558700
1835.000000	51.428200
1834.000000	51.277200
1833.000000	51.168900
1832.000000	51.093700
1831.000000	51.046600
1830.000000	50.986400
1829.000000	50.918900
1828.000000	50.838000
1827.000000	50.782600
1826.000000	50.725800
1825.000000	50.637200
1824.000000	50.566200
1823.000000	50.592700
1822.000000	50.657800
1821.000000	50.703900
1820.000000	50.685800
1819.000000	50.614000
1818.000000	50.551000
1817.000000	50.530900
1816.000000	50.522500
1815.000000	50.499500
1814.000000	50.478600
1813.000000	50.438500
1812.000000	50.416800
1811.000000	50.368100
1810.000000	50.290200
1809.000000	50.216500
1808.000000	50.172700
1807.000000	50.146400
1806.000000	50.098500
1805.000000	50.023100
1804.000000	49.958600
1803.000000	49.932300
1802.000000	49.903200
1801.000000	49.845600
1800.000000	49.762800
1799.000000	49.710900
1798.000000	49.653900
1797.000000	49.613900
1796.000000	49.573200
1795.000000	49.522200
1794.000000	49.461800
1793.000000	49.413500
1792.000000	49.383600
1791.000000	49.329800
1790.000000	49.287300
1789.000000	49.240400
1788.000000	49.209900
1787.000000	49.185000
1786.000000	49.144600
1785.000000	49.089300
1784.000000	49.038000
1783.000000	48.974600
1782.000000	48.917900
1781.000000	48.847600
1780.000000	48.770900
1779.000000	48.686300
1778.000000	48.594000
1777.000000	48.494100
1776.000000	48.384900
1775.000000	48.263800
1774.000000	48.137200
1773.000000	48.000900
1772.000000	47.886400
1771.000000	47.759400
1770.000000	47.634600
1769.000000	47.509200
1768.000000	47.391900
1767.000000	47.300900
1766.000000	47.205600
1765.000000	47.135200
1764.000000	47.104000
1763.000000	47.071900
1762.000000	47.063300
1761.000000	47.070100
1760.000000	47.102500
1759.000000	47.135200
1758.000000	47.157800
1757.000000	47.172100
1756.000000	47.173100
1755.000000	47.177500
1754.000000	47.174700
1753.000000	47.137600
1752.000000	47.102400
1751.000000	47.052100
1750.000000	46.982600
1749.000000	46.898900
1748.000000	46.794600
1747.000000	46.657800
1746.000000	46.499500
1745.000000	46.301400
1744.000000	46.112300
1743.000000	45.913100
1742.000000	45.699000
1741.000000	45.473600
1740.000000	45.235200
1739.000000	45.014900
1738.000000	44.817100
1737.000000	44.673300
1736.000000	44.527000
1735.000000	44.424200
1734.000000	44.357000
1733.000000	44.312900
1732.000000	44.302300
1731.000000	44.290800
1730.000000	44.284500
1729.000000	44.303100
1728.000000	44.306300
1727.000000	44.304000
1726.000000	44.315000
1725.000000	44.319400
1724.000000	44.329100
1723.000000	44.391700
1722.000000	44.482700
1721.000000	44.619900
1720.000000	44.801200
1719.000000	45.005700
1718.000000	45.225600
1717.000000	45.460200
1716.000000	45.705800
1715.000000	45.933600
1714.000000	46.157200
1713.000000	46.351100
1712.000000	46.483700
1711.000000	46.613600
1710.000000	46.733600
1709.000000	46.792600
1708.000000	46.849500
1707.000000	46.874500
1706.000000	46.891700
1705.000000	46.880500
1704.000000	46.850600
1703.000000	46.770200
1702.000000	46.668900
1701.000000	46.555100
1700.000000	46.463900
1699.000000	46.347000
1698.000000	46.234300
1697.000000	46.178000
1696.000000	46.145700
1695.000000	46.130700
1694.000000	46.123800
1693.000000	46.136300
1692.000000	46.163200
1691.000000	46.201400
1690.000000	46.225600
1689.000000	46.275500
1688.000000	46.358700
1687.000000	46.452200
1686.000000	46.636800
1685.000000	46.881400
1684.000000	47.221000
1683.000000	47.622500
1682.000000	48.091800
1681.000000	48.579800
1680.000000	49.108500
1679.000000	49.639100
1678.000000	50.099300
1677.000000	50.543700
1676.000000	50.940600
1675.000000	51.304000
1674.000000	51.658800
1673.000000	51.975000
1672.000000	52.268900
1671.000000	52.564700
1670.000000	52.805100
1669.000000	53.081000
1668.000000	53.301800
1667.000000	53.519600
1666.000000	53.684500
1665.000000	53.844400
1664.000000	54.013300
1663.000000	54.151600
1662.000000	54.273700
1661.000000	54.402000
1660.000000	54.487600
1659.000000	54.560000
1658.000000	54.634300
1657.000000	54.697200
1656.000000	54.741500
1655.000000	54.759500
1654.000000	54.757400
1653.000000	54.758400
1652.000000	54.767500
1651.000000	54.748400
1650.000000	54.717200
1649.000000	54.695700
1648.000000	54.670600
1647.000000	54.621200
1646.000000	54.578800
1645.000000	54.541700
1644.000000	54.512200
1643.000000	54.464000
1642.000000	54.413300
1641.000000	54.371400
1640.000000	54.327800
1639.000000	54.286300
1638.000000	54.254200
1637.000000	54.202600
1636.000000	54.139100
1635.000000	54.061400
1634.000000	53.981400
1633.000000	53.907200
1632.000000	53.836900
1631.000000	53.755100
1630.000000	53.669000
1629.000000	53.576400
1628.000000	53.487900
1627.000000	53.400700
1626.000000	53.321200
1625.000000	53.233900
1624.000000	53.147200
1623.000000	53.051300
1622.000000	52.977000
1621.000000	52.915500
1620.000000	52.840700
1619.000000	52.773200
1618.000000	52.704300
1617.000000	52.633900
1616.000000	52.547500
1615.000000	52.466400
1614.000000	52.379100
1613.000000	52.300500
1612.000000	52.228400
1611.000000	52.137000
1610.000000	52.042400
1609.000000	51.963300
1608.000000	51.862300
1607.000000	51.758100
1606.000000	51.637000
1605.000000	51.517700
1604.000000	51.425000
1603.000000	51.332700
1602.000000	51.212100
1601.000000	51.100400
1600.000000	51.000900
1599.000000	50.900800
1598.000000	50.792300
1597.000000	50.695200
1596.000000	50.602400
1595.000000	50.518600
1594.000000	50.435000
1593.000000	50.350200
1592.000000	50.273300
1591.000000	50.197400
1590.000000	50.133200
1589.000000	50.063300
1588.000000	49.994400
1587.000000	49.927200
1586.000000	49.864300
1585.000000	49.802500
1584.000000	49.751300
1583.000000	49.696100
1582.000000	49.642100
1581.000000	49.603800
1580.000000	49.569100
1579.000000	49.540500
1578.000000	49.521100
1577.000000	49.508800
1576.000000	49.504400
1575.000000	49.499200
1574.000000	49.500400
1573.000000	49.520000
1572.000000	49.543600
1571.000000	49.570900
1570.000000	49.605600
1569.000000	49.642800
1568.000000	49.690500
1567.000000	49.732200
1566.000000	49.767900
1565.000000	49.792500
1564.000000	49.813900
1563.000000	49.844200
1562.000000	49.861800
1561.000000	49.869900
1560.000000	49.871400
1559.000000	49.868100
1558.000000	49.851900
1557.000000	49.810300
1556.000000	49.774500
1555.000000	49.728800
1554.000000	49.665900
1553.000000	49.601600
1552.000000	49.540400
1551.000000	49.454000
1550.000000	49.369100
1549.000000	49.288400
1548.000000	49.203300
1547.000000	49.134900
1546.000000	49.060200
1545.000000	48.993200
1544.000000	48.957500
1543.000000	48.915600
1542.000000	48.872100
1541.000000	48.856800
1540.000000	48.842900
1539.000000	48.813600
1538.000000	48.790300
1537.000000	48.766100
1536.000000	48.749900
1535.000000	48.720700
1534.000000	48.689400
1533.000000	48.644200
1532.000000	48.604500
1531.000000	48.556500
1530.000000	48.508100
1529.000000	48.464800
1528.000000	48.403800
1527.000000	48.343600
1526.000000	48.291700
1525.000000	48.244100
1524.000000	48.173800
1523.000000	48.113600
1522.000000	48.065100
1521.000000	47.998700
1520.000000	47.915800
1519.000000	47.851500
1518.000000	47.782200
1517.000000	47.713000
1516.000000	47.650100
1515.000000	47.580600
1514.000000	47.509100
1513.000000	47.428400
1512.000000	47.346300
1511.000000	47.282200
1510.000000	47.196800
1509.000000	47.128500
1508.000000	47.047200
1507.000000	46.974200
1506.000000	46.897500
1505.000000	46.825100
1504.000000	46.748200
1503.000000	46.676800
1502.000000	46.614400
1501.000000	46.565600
1500.000000	46.526800
1499.000000	46.486000
1498.000000	46.462000
1497.000000	46.446500
1496.000000	46.428000
1495.000000	46.402500
1494.000000	46.402900
1493.000000	46.417700
1492.000000	46.424100
1491.000000	46.437400
1490.000000	46.456400
1489.000000	46.478200
1488.000000	46.493800
1487.000000	46.522000
1486.000000	46.524900
1485.000000	46.560000
1484.000000	46.578500
1483.000000	46.616600
1482.000000	46.661700
1481.000000	46.706500
1480.000000	46.732400
1479.000000	46.787700
1478.000000	46.857300
1477.000000	46.913200
1476.000000	46.995600
1475.000000	47.077800
1474.000000	47.172900
1473.000000	47.272700
1472.000000	47.403300
1471.000000	47.506700
1470.000000	47.589400
1469.000000	47.659500
1468.000000	47.771400
1467.000000	47.881200
1466.000000	47.982900
1465.000000	48.081600
1464.000000	48.197600
1463.000000	48.306800
1462.000000	48.440600
1461.000000	48.561800
1460.000000	48.679700
1459.000000	48.813800
1458.000000	48.947700
1457.000000	49.082100
1456.000000	49.248700
1455.000000	49.361600
1454.000000	49.497600
1453.000000	49.669600
1452.000000	49.836300
1451.000000	50.008200
1450.000000	50.120400
1449.000000	50.209500
1448.000000	50.374800
1447.000000	50.555600
1446.000000	50.763900
1445.000000	50.903100
1444.000000	51.017100
1443.000000	51.184600
1442.000000	51.373600
1441.000000	51.502300
1440.000000	51.689300
1439.000000	51.875400
1438.000000	52.071300
1437.000000	52.204500
1436.000000	52.379600
1435.000000	52.605700
1434.000000	52.806900
1433.000000	53.050600
1432.000000	53.252800
1431.000000	53.453400
1430.000000	53.696800
1429.000000	53.977600
1428.000000	54.235900
1427.000000	54.492500
1426.000000	54.792000
1425.000000	55.137700
1424.000000	55.464700
1423.000000	55.753000
1422.000000	56.067300
1421.000000	56.446600
1420.000000	56.870900
1419.000000	57.204600
1418.000000	57.524200
1417.000000	57.801900
1416.000000	58.207000
1415.000000	58.686500
1414.000000	59.072900
1413.000000	59.389600
1412.000000	59.734300
1411.000000	60.221100
1410.000000	60.738900
1409.000000	61.166500
1408.000000	61.628700
1407.000000	62.037900
1406.000000	62.496900
1405.000000	62.932100
1404.000000	63.353000
1403.000000	63.693900
1402.000000	64.152500
1401.000000	64.658100
1400.000000	64.991500
1399.000000	65.178000
1398.000000	65.402600
1397.000000	65.791800
1396.000000	66.220100
1395.000000	66.413600
1394.000000	66.564000
1393.000000	66.846600
1392.000000	67.120600
1391.000000	67.318800
1390.000000	67.576500
1389.000000	67.952400
1388.000000	68.308000
1387.000000	68.608900
1386.000000	68.956500
1385.000000	69.405200
1384.000000	69.665100
1383.000000	70.004600
1382.000000	70.217400
1381.000000	70.347700
1380.000000	70.403000
1379.000000	70.492700
1378.000000	70.556000
1377.000000	70.669000
1376.000000	70.801900
1375.000000	70.921100
1374.000000	71.100000
1373.000000	71.341100
1372.000000	71.590200
1371.000000	71.781600
1370.000000	71.966600
1369.000000	72.206700
1368.000000	72.374300
1367.000000	72.486800
1366.000000	72.643300
1365.000000	72.798500
1364.000000	72.893000
1363.000000	73.076200
1362.000000	73.184500
1361.000000	73.195000
1360.000000	73.136200
1359.000000	73.269200
1358.000000	73.373300
1357.000000	73.487200
1356.000000	73.709400
1355.000000	73.947700
1354.000000	74.149000
1353.000000	74.376600
1352.000000	74.724200
1351.000000	75.028600
1350.000000	75.334100
1349.000000	75.638000
1348.000000	75.925400
1347.000000	76.147900
1346.000000	76.362000
1345.000000	76.614900
1344.000000	76.840500
1343.000000	77.057600
1342.000000	77.257200
1341.000000	77.439200
1340.000000	77.619000
1339.000000	77.760300
1338.000000	77.929000
1337.000000	78.092200
1336.000000	78.231100
1335.000000	78.350900
1334.000000	78.477900
1333.000000	78.599300
1332.000000	78.720400
1331.000000	78.831700
1330.000000	78.917500
1329.000000	78.999200
1328.000000	79.077000
1327.000000	79.152900
1326.000000	79.235000
1325.000000	79.309100
1324.000000	79.369400
1323.000000	79.415300
1322.000000	79.471200
1321.000000	79.533200
1320.000000	79.581300
1319.000000	79.624200
1318.000000	79.675200
1317.000000	79.723800
1316.000000	79.766600
1315.000000	79.811300
1314.000000	79.858700
1313.000000	79.889900
1312.000000	79.917000
1311.000000	79.948300
1310.000000	79.976700
1309.000000	80.013500
1308.000000	80.034100
1307.000000	80.036900
1306.000000	80.051400
1305.000000	80.061800
1304.000000	80.060300
1303.000000	80.056900
1302.000000	80.060700
1301.000000	80.058100
1300.000000	80.049400
1299.000000	80.049500
1298.000000	80.054500
1297.000000	80.045600
1296.000000	80.014100
1295.000000	79.994400
1294.000000	79.978200
1293.000000	79.952700
1292.000000	79.921000
1291.000000	79.887400
1290.000000	79.845700
1289.000000	79.805500
1288.000000	79.770700
1287.000000	79.734300
1286.000000	79.680400
1285.000000	79.626200
1284.000000	79.572300
1283.000000	79.514000
1282.000000	79.463100
1281.000000	79.409000
1280.000000	79.364200
1279.000000	79.329900
1278.000000	79.280000
1277.000000	79.223900
1276.000000	79.205000
1275.000000	79.178000
1274.000000	79.150900
1273.000000	79.130200
1272.000000	79.116600
1271.000000	79.099600
1270.000000	79.081900
1269.000000	79.070100
1268.000000	79.046800
1267.000000	79.033400
1266.000000	79.010100
1265.000000	78.985400
1264.000000	78.958700
1263.000000	78.941900
1262.000000	78.925400
1261.000000	78.909400
1260.000000	78.883500
1259.000000	78.871100
1258.000000	78.853900
1257.000000	78.820500
1256.000000	78.796300
1255.000000	78.759500
1254.000000	78.724200
1253.000000	78.678300
1252.000000	78.630400
1251.000000	78.566400
1250.000000	78.505200
1249.000000	78.447600
1248.000000	78.370900
1247.000000	78.280300
1246.000000	78.201400
1245.000000	78.109400
1244.000000	78.032600
1243.000000	77.932800
1242.000000	77.853100
1241.000000	77.756800
1240.000000	77.655200
1239.000000	77.585900
1238.000000	77.500800
1237.000000	77.410800
1236.000000	77.312500
1235.000000	77.234800
1234.000000	77.144800
1233.000000	77.056400
1232.000000	76.966600
1231.000000	76.879600
1230.000000	76.809900
1229.000000	76.714100
1228.000000	76.625200
1227.000000	76.543000
1226.000000	76.476100
1225.000000	76.384400
1224.000000	76.276300
1223.000000	76.213000
1222.000000	76.129900
1221.000000	76.065000
1220.000000	75.992700
1219.000000	75.919500
1218.000000	75.847300
1217.000000	75.759300
1216.000000	75.690800
1215.000000	75.633500
1214.000000	75.562400
1213.000000	75.481100
1212.000000	75.400700
1211.000000	75.325100
1210.000000	75.265000
1209.000000	75.159200
1208.000000	75.095500
1207.000000	75.011200
1206.000000	74.930000
1205.000000	74.855600
1204.000000	74.808600
1203.000000	74.740900
1202.000000	74.663800
1201.000000	74.579100
1200.000000	74.498200
1199.000000	74.414900
1198.000000	74.289600
1197.000000	74.169500
1196.000000	74.024000
1195.000000	73.838300
1194.000000	73.654300
1193.000000	73.460700
1192.000000	73.237300
1191.000000	73.032600
1190.000000	72.832500
1189.000000	72.687900
1188.000000	72.566600
1187.000000	72.535400
1186.000000	72.547400
1185.000000	72.595300
1184.000000	72.708800
1183.000000	72.868000
1182.000000	73.061600
1181.000000	73.233700
1180.000000	73.451400
1179.000000	73.621700
1178.000000	73.788900
1177.000000	73.947300
1176.000000	74.070200
1175.000000	74.209000
1174.000000	74.365300
1173.000000	74.483500
1172.000000	74.651400
1171.000000	74.813600
1170.000000	74.987100
1169.000000	75.178100
1168.000000	75.369100
1167.000000	75.564800
1166.000000	75.768400
1165.000000	75.968200
1164.000000	76.185200
1163.000000	76.379400
1162.000000	76.585200
1161.000000	76.767600
1160.000000	76.942900
1159.000000	77.136000
1158.000000	77.287600
1157.000000	77.442500
1156.000000	77.572700
1155.000000	77.668800
1154.000000	77.769100
1153.000000	77.833000
1152.000000	77.875300
1151.000000	77.908600
1150.000000	77.934800
1149.000000	77.958600
1148.000000	78.029300
1147.000000	78.081800
1146.000000	78.133400
1145.000000	78.200000
1144.000000	78.279700
1143.000000	78.380000
1142.000000	78.504400
1141.000000	78.646000
1140.000000	78.749200
1139.000000	78.886300
1138.000000	79.031300
1137.000000	79.238800
1136.000000	79.420000
1135.000000	79.546200
1134.000000	79.662600
1133.000000	79.708100
1132.000000	79.842200
1131.000000	79.920600
1130.000000	80.040300
1129.000000	80.096100
1128.000000	80.139000
1127.000000	80.193700
1126.000000	80.224500
1125.000000	80.257800
1124.000000	80.281800
1123.000000	80.295900
1122.000000	80.282300
1121.000000	80.258900
1120.000000	80.251100
1119.000000	80.245800
1118.000000	80.208000
1117.000000	80.177000
1116.000000	80.130200
1115.000000	80.104700
1114.000000	80.084000
1113.000000	80.067500
1112.000000	80.017300
1111.000000	79.996400
1110.000000	79.964100
1109.000000	79.920000
1108.000000	79.893100
1107.000000	79.878400
1106.000000	79.849100
1105.000000	79.816500
1104.000000	79.772400
1103.000000	79.728300
1102.000000	79.704600
1101.000000	79.688500
1100.000000	79.648300
1099.000000	79.594700
1098.000000	79.560500
1097.000000	79.530600
1096.000000	79.489500
1095.000000	79.445400
1094.000000	79.403300
1093.000000	79.370300
1092.000000	79.330300
1091.000000	79.267500
1090.000000	79.209200
1089.000000	79.165200
1088.000000	79.120300
1087.000000	79.075900
1086.000000	79.018400
1085.000000	78.973900
1084.000000	78.926200
1083.000000	78.878600
1082.000000	78.817900
1081.000000	78.761700
1080.000000	78.698500
1079.000000	78.655600
1078.000000	78.602500
1077.000000	78.540500
1076.000000	78.484300
1075.000000	78.424400
1074.000000	78.371500
1073.000000	78.327800
1072.000000	78.270000
1071.000000	78.213900
1070.000000	78.153400
1069.000000	78.101900
1068.000000	78.045200
1067.000000	77.988800
1066.000000	77.934500
1065.000000	77.873400
1064.000000	77.818200
1063.000000	77.768200
1062.000000	77.729500
1061.000000	77.679800
1060.000000	77.627500
1059.000000	77.576700
1058.000000	77.514800
1057.000000	77.452200
1056.000000	77.414400
1055.000000	77.368100
1054.000000	77.318900
1053.000000	77.273600
1052.000000	77.230500
1051.000000	77.188400
1050.000000	77.155400
1049.000000	77.116100
1048.000000	77.076900
1047.000000	77.054000
1046.000000	77.025300
1045.000000	76.986700
1044.000000	76.957400
1043.000000	76.930200
1042.000000	76.908100
1041.000000	76.876700
1040.000000	76.842800
1039.000000	76.825800
1038.000000	76.793500
1037.000000	76.755900
1036.000000	76.737200
1035.000000	76.720200
1034.000000	76.675600
1033.000000	76.643000
1032.000000	76.636000
1031.000000	76.607300
1030.000000	76.557900
1029.000000	76.534600
1028.000000	76.511000
1027.000000	76.479500
1026.000000	76.451500
1025.000000	76.430000
1024.000000	76.404100
1023.000000	76.378400
1022.000000	76.360500
1021.000000	76.337100
1020.000000	76.308600
1019.000000	76.301300
1018.000000	76.301500
1017.000000	76.293000
1016.000000	76.282800
1015.000000	76.276300
1014.000000	76.266000
1013.000000	76.265900
1012.000000	76.275600
1011.000000	76.281600
1010.000000	76.287600
1009.000000	76.292900
1008.000000	76.304000
1007.000000	76.314600
1006.000000	76.335300
1005.000000	76.351800
1004.000000	76.354400
1003.000000	76.365400
1002.000000	76.382600
1001.000000	76.403200
1000.000000	76.414600
999.000000	76.428600
998.000000	76.436600
997.000000	76.448000
996.000000	76.481500
995.000000	76.515100
994.000000	76.543600
993.000000	76.572000
992.000000	76.572200
991.000000	76.615500
990.000000	76.667900
989.000000	76.689100
988.000000	76.718700
987.000000	76.768400
986.000000	76.805500
985.000000	76.853100
984.000000	76.909600
983.000000	76.944700
982.000000	76.968900
981.000000	76.999800
980.000000	77.033000
979.000000	77.104100
978.000000	77.159300
977.000000	77.201200
976.000000	77.244800
975.000000	77.292300
974.000000	77.325700
973.000000	77.377700
972.000000	77.442700
971.000000	77.487200
970.000000	77.530900
969.000000	77.600900
968.000000	77.661900
967.000000	77.704500
966.000000	77.766700
965.000000	77.825000
964.000000	77.894900
963.000000	77.961700
962.000000	78.031500
961.000000	78.077800
960.000000	78.122100
959.000000	78.187600
958.000000	78.254400
957.000000	78.294200
956.000000	78.355600
955.000000	78.408600
954.000000	78.448500
953.000000	78.497600
952.000000	78.560500
951.000000	78.583200
950.000000	78.637200
949.000000	78.701300
948.000000	78.738700
947.000000	78.811700
946.000000	78.855000
945.000000	78.894800
944.000000	78.958700
943.000000	78.981600
942.000000	79.027800
941.000000	79.082600
940.000000	79.145400
939.000000	79.164700
938.000000	79.208000
937.000000	79.259800
936.000000	79.337000
935.000000	79.370500
934.000000	79.416300
933.000000	79.469000
932.000000	79.522700
931.000000	79.535700
930.000000	79.594900
929.000000	79.649000
928.000000	79.683500
927.000000	79.739500
926.000000	79.803300
925.000000	79.873100
924.000000	79.909500
923.000000	79.977500
922.000000	80.046500
921.000000	80.128100
920.000000	80.199300
919.000000	80.257800
918.000000	80.347400
917.000000	80.388000
916.000000	80.445800
915.000000	80.526000
914.000000	80.602500
913.000000	80.669600
912.000000	80.760100
911.000000	80.814200
910.000000	80.902400
909.000000	80.980600
908.000000	81.048100
907.000000	81.139200
906.000000	81.187900
905.000000	81.306000
904.000000	81.346900
903.000000	81.460600
902.000000	81.534600
901.000000	81.633300
900.000000	81.710200
899.000000	81.818200
898.000000	81.892200
897.000000	81.983000
896.000000	82.079500
895.000000	82.162100
894.000000	82.258000
893.000000	82.364200
892.000000	82.459500
891.000000	82.595300
890.000000	82.691300
889.000000	82.813200
888.000000	82.888500
887.000000	82.984100
886.000000	83.117400
885.000000	83.241600
884.000000	83.360500
883.000000	83.474400
882.000000	83.606000
881.000000	83.753600
880.000000	83.877800
879.000000	84.006700
878.000000	84.141600
877.000000	84.306100
876.000000	84.451400
875.000000	84.600200
874.000000	84.768000
873.000000	84.907000
872.000000	85.079400
871.000000	85.244600
870.000000	85.440500
869.000000	85.635800
868.000000	85.822400
867.000000	86.013800
866.000000	86.235000
865.000000	86.414500
864.000000	86.635300
863.000000	86.824000
862.000000	87.040400
861.000000	87.226700
860.000000	87.389500
859.000000	87.538900
858.000000	87.314900
857.000000	87.404460
856.000000	88.039104
855.000000	88.275305
854.000000	88.271008
853.000000	88.722849
852.000000	88.477237
851.000000	89.195047
850.000000	88.889387
849.000000	89.010096
848.000000	89.569041
847.000000	89.794705
846.000000	89.767290
845.000000	89.894239
844.000000	89.999809
843.000000	90.393239
842.000000	90.260868
841.000000	90.414516
840.000000	90.601718
839.000000	90.403366
838.000000	90.381884
837.000000	90.640488
836.000000	90.586885
835.000000	90.825439
834.000000	90.792806
833.000000	90.587089
832.000000	90.477223
831.000000	90.312732
830.000000	90.350990
829.000000	90.287669
828.000000	90.238772
827.000000	90.354571
826.000000	90.247467
825.000000	90.151309
824.000000	90.116017
823.000000	89.863960
822.000000	89.880839
821.000000	89.900786
820.000000	89.811584
819.000000	89.750820
818.000000	89.963391
817.000000	90.040932
816.000000	90.076326
815.000000	89.947126
814.000000	89.794501
813.000000	89.883805
812.000000	89.986101
811.000000	90.161232
810.000000	90.182509
809.000000	90.110595
808.000000	90.113152
807.000000	90.293193
806.000000	90.342602
805.000000	90.281122
804.000000	90.229156
803.000000	90.359788
802.000000	90.223632
801.000000	90.051366
800.000000	90.116324
799.000000	89.925235
798.000000	89.888715
797.000000	89.736601
796.000000	89.520450
795.000000	89.469302
794.000000	89.306345
793.000000	89.175713
792.000000	89.075975
791.000000	88.933067
790.000000	88.790160
789.000000	88.749855
788.000000	88.570224
787.000000	88.362256
786.000000	88.323793
785.000000	88.205744
784.000000	88.141195
783.000000	88.017826
782.000000	87.844435
781.000000	87.812314
780.000000	87.896605
779.000000	87.853641
778.000000	87.616622
777.000000	87.500720
776.000000	87.465838
775.000000	87.291423
774.000000	87.230046
773.000000	87.225647
772.000000	87.167850
771.000000	87.016759
770.000000	86.826897
769.000000	86.738002
768.000000	86.720305
767.000000	86.587321
766.000000	86.473261
765.000000	86.399301
764.000000	86.317362
763.000000	86.134968
762.000000	85.976716
761.000000	85.799233
760.000000	85.443141
759.000000	85.196404
758.000000	84.982810
757.000000	84.656179
756.000000	84.337425
755.000000	83.940415
754.000000	83.574502
753.000000	83.211147
752.000000	82.798486
751.000000	82.348691
750.000000	81.866775
749.000000	81.398465
748.000000	80.948056
747.000000	80.506240
746.000000	80.101353
745.000000	79.705263
744.000000	79.329121
743.000000	78.989397
742.000000	78.575917
741.000000	78.177270
740.000000	77.846956
739.000000	77.454447
738.000000	77.064495
737.000000	76.693570
736.000000	76.314462
735.000000	75.926044
734.000000	75.568418
733.000000	75.127421
732.000000	74.681308
731.000000	74.247778
730.000000	73.869386
729.000000	73.472069
728.000000	73.061658
727.000000	72.734618
726.000000	72.459749
725.000000	72.222422
724.000000	71.943564
723.000000	71.724037
722.000000	71.581743
721.000000	71.451725
720.000000	71.313421
719.000000	71.211637
718.000000	71.155783
717.000000	71.094713
716.000000	71.014103
715.000000	70.976868
714.000000	70.926743
713.000000	70.821889
712.000000	70.709364
711.000000	70.541496
710.000000	70.377516
709.000000	70.248521
708.000000	70.057739
707.000000	69.984802
706.000000	69.899692
705.000000	69.779597
704.000000	69.740724
703.000000	69.641702
702.000000	69.702875
701.000000	69.760263
700.000000	69.813661
699.000000	69.878005
698.000000	69.971504
697.000000	70.078608
696.000000	70.178551
695.000000	70.313786
694.000000	70.363706
693.000000	70.369639
692.000000	70.337314
691.000000	70.251283
690.000000	70.044032
689.000000	69.811615
688.000000	69.566105
687.000000	69.310263
686.000000	68.953967
685.000000	68.642885
684.000000	68.337430
683.000000	68.075041
682.000000	67.878837
681.000000	67.719051
680.000000	67.552513
679.000000	67.469244
678.000000	67.325416
677.000000	67.232429
676.000000	67.120518
675.000000	67.020370
674.000000	66.803810
673.000000	66.501014
672.000000	66.064620
671.000000	65.538921
670.000000	64.910109
669.000000	64.189230
668.000000	63.346925
667.000000	62.481911
666.000000	61.624774
665.000000	60.703191
664.000000	59.817002
663.000000	58.989428
662.000000	58.255966
661.000000	57.619379
660.000000	57.026575
659.000000	56.495966
658.000000	56.091590
657.000000	55.693250
656.000000	55.331430
655.000000	54.963471
654.000000	54.580783
653.000000	54.181931
652.000000	53.770599
651.000000	53.313541
650.000000	52.800527
649.000000	52.294470
648.000000	51.842220
647.000000	51.443368
646.000000	51.137503
645.000000	50.943141
644.000000	50.911736
643.000000	51.109065
642.000000	51.465157
641.000000	52.035661
640.000000	52.779352
639.000000	53.665132
638.000000	54.662926
637.000000	55.797081
636.000000	56.897170
635.000000	58.019254
634.000000	59.120980
633.000000	60.143530
632.000000	61.208941
631.000000	62.049302
630.000000	62.818362
629.000000	63.591412
628.000000	64.292241
627.000000	64.982432
626.000000	65.688682
625.000000	66.466745
624.000000	67.281941
623.000000	68.183577
622.000000	69.222084
621.000000	70.324322
620.000000	71.503794
619.000000	72.616364
618.000000	73.768931
617.000000	74.862679
616.000000	75.970748
615.000000	76.983681
614.000000	77.900764
613.000000	78.758208
612.000000	79.487373
611.000000	80.227791
610.000000	80.781825
609.000000	81.366446
608.000000	81.870458
607.000000	82.374060
606.000000	82.862728
605.000000	83.317944
604.000000	83.806100
603.000000	84.307759
602.000000	84.767988
601.000000	85.235276
600.000000	85.711156
599.000000	86.151438
598.000000	86.633456
597.000000	87.033944
596.000000	87.406199
595.000000	87.747867
594.000000	88.037569
593.000000	88.311211
592.000000	88.500867
591.000000	88.739728
590.000000	88.939000
589.000000	89.055925
588.000000	89.145024
587.000000	89.267677
586.000000	89.292228
585.000000	89.338159
584.000000	89.364347
583.000000	89.364858
582.000000	89.377952
581.000000	89.304708
580.000000	89.261335
579.000000	89.248241
578.000000	89.124054
577.000000	89.098071
576.000000	89.028509
575.000000	88.913222
574.000000	88.828316
573.000000	88.721519
572.000000	88.580453
571.000000	88.482249
570.000000	88.372077
569.000000	88.226714
568.000000	88.045446
567.000000	87.861313
566.000000	87.624192
565.000000	87.434024
564.000000	87.149334
563.000000	86.865258
562.000000	86.590492
561.000000	86.273375
560.000000	85.927512
559.000000	85.490197
558.000000	85.094005
557.000000	84.664056
556.000000	84.211397
555.000000	83.754134
554.000000	83.223218
553.000000	82.641155
552.000000	82.076072
551.000000	81.457694
550.000000	80.835940
549.000000	80.203444
548.000000	79.526245
547.000000	78.804650
546.000000	78.089704
545.000000	77.338137
544.000000	76.536239
543.000000	75.769327
542.000000	74.926409
541.000000	74.037458
540.000000	73.093472
539.000000	72.180583
538.000000	71.199054
537.000000	70.227448
536.000000	69.193646
535.000000	68.143374
534.000000	66.971064
533.000000	65.812665
532.000000	64.645162
531.000000	63.437969
530.000000	62.207554
529.000000	60.953611
528.000000	59.666422
527.000000	58.385985
526.000000	57.123449
525.000000	55.765880
524.000000	54.364222
523.000000	52.942514
522.000000	51.557428
521.000000	50.143290
520.000000	48.714216
519.000000	47.295475
518.000000	45.885429
517.000000	44.496557
516.000000	43.083647
515.000000	41.701425
514.000000	40.343959
513.000000	38.999996
512.000000	37.716694
511.000000	36.492417
510.000000	35.355398
509.000000	34.321494
508.000000	33.399399
507.000000	32.609061
506.000000	31.948127
505.000000	31.415882
504.000000	30.998719
503.000000	30.716996
502.000000	30.577055
501.000000	30.511995
500.000000	30.504835
499.000000	30.565598
498.000000	30.672395
497.000000	30.772441
496.000000	30.880465
495.000000	31.020201
494.000000	31.157278
493.000000	31.263256
492.000000	31.364222
491.000000	31.447491
490.000000	31.498434
489.000000	31.539762
488.000000	31.559198
487.000000	31.561244
486.000000	31.545593
485.000000	31.506209
484.000000	31.448309
483.000000	31.361051
482.000000	31.237171
481.000000	31.103572
480.000000	30.955039
479.000000	30.793411
478.000000	30.632193
477.000000	30.458699
476.000000	30.283057
475.000000	30.092071
474.000000	29.913053
473.000000	29.735467
472.000000	29.532103
471.000000	29.334161
470.000000	29.132638
469.000000	28.914543
468.000000	28.716805
467.000000	28.518556
466.000000	28.314168
465.000000	28.102211
464.000000	27.885037
463.000000	27.664794
462.000000	27.450689
461.000000	27.232799
460.000000	27.012044
459.000000	26.780753
458.000000	26.523888
457.000000	26.268455
456.000000	25.999622
455.000000	25.716774
454.000000	25.413262
453.000000	25.122332
452.000000	24.800203
451.000000	24.461399
450.000000	24.111445
449.000000	23.728142
448.000000	23.323766
447.000000	22.917652
446.000000	22.514095
445.000000	22.081894
444.000000	21.591897
443.000000	21.097297
442.000000	20.599627
441.000000	20.071678
440.000000	19.535034
439.000000	18.983250
438.000000	18.426351
437.000000	17.881524
436.000000	17.309894
435.000000	16.726296
434.000000	16.167556
433.000000	15.609839
432.000000	15.050690
431.000000	14.500236
430.000000	13.955612
429.000000	13.427254
428.000000	12.929994
427.000000	12.459126
426.000000	12.006160
425.000000	11.571607
424.000000	11.150966
423.000000	10.755388
422.000000	10.392033
421.000000	10.058344
420.000000	9.753196
419.000000	9.471677
418.000000	9.197320
417.000000	8.954060
416.000000	8.730748
415.000000	8.523804
414.000000	8.337012
413.000000	8.176202
412.000000	8.028794
411.000000	7.892741
410.000000	7.764257
409.000000	7.648458
408.000000	7.553016
407.000000	7.469645
406.000000	7.403971
405.000000	7.319679
404.000000	7.253494
403.000000	7.200504
402.000000	7.147515
401.000000	7.092582
400.000000	7.049413
399.000000	7.006756
398.000000	6.969623
397.000000	6.940775
396.000000	6.902926
395.000000	6.865997
394.000000	6.832239
393.000000	6.820271
392.000000	6.787434
391.000000	6.758893
390.000000	6.731887
389.000000	6.705597
388.000000	6.675522
387.000000	6.643196
386.000000	6.621510
385.000000	6.601971
384.000000	6.583251
383.000000	6.541924
382.000000	6.516656
381.000000	6.504586
380.000000	6.474101
379.000000	6.450676
378.000000	6.435945
377.000000	6.423772
376.000000	6.371294
375.000000	6.330887
374.000000	6.329660
373.000000	6.365770
372.000000	6.341117
371.000000	6.317998
370.000000	6.295186
369.000000	6.234627
368.000000	6.274727
367.000000	6.241685
366.000000	6.229103
365.000000	6.242503
364.000000	6.209462
363.000000	6.154529
362.000000	6.126091
361.000000	6.128034
360.000000	6.124966
359.000000	6.119442
358.000000	6.092231
357.000000	6.036582
356.000000	6.004972
355.000000	6.029626
354.000000	5.986457
353.000000	5.996891
352.000000	5.941958
351.000000	5.946766
350.000000	5.913008
349.000000	5.895516
348.000000	5.907484
347.000000	5.888048
346.000000	5.949017
345.000000	5.919044
344.000000	5.859712
343.000000	5.842834
342.000000	5.856234
341.000000	5.848357
340.000000	5.877307
339.000000	5.909940
338.000000	5.901244
337.000000	5.900733
336.000000	5.952904
335.000000	5.940219
334.000000	5.893981
333.000000	5.833525
332.000000	5.901040
331.000000	5.849278
330.000000	5.846823
329.000000	5.914543
328.000000	5.897664
327.000000	5.876080
326.000000	5.820533
325.000000	5.846925
324.000000	5.923954
323.000000	5.822988
322.000000	5.842936
321.000000	5.840685
320.000000	5.872295
319.000000	5.942470
318.000000	5.811429
317.000000	5.891731
316.000000	5.859508
315.000000	5.867691
314.000000	5.860940
313.000000	5.903700
312.000000	5.885695
311.000000	5.889583
310.000000	5.885286
309.000000	5.958837
308.000000	5.902370
307.000000	5.875159
306.000000	5.859917
305.000000	5.907689
304.000000	5.861144
303.000000	5.918328
302.000000	5.832195
301.000000	5.918021
300.000000	5.864623
299.000000	5.899505
298.000000	5.881399
297.000000	5.918123
296.000000	5.852552
295.000000	5.882115
294.000000	5.932547
293.000000	5.901449
292.000000	5.911474
291.000000	5.850301
290.000000	5.876489
289.000000	5.887230
288.000000	5.862986
287.000000	5.863088
286.000000	5.863702
285.000000	5.904518
284.000000	5.893981
283.000000	5.910349
282.000000	5.950142
281.000000	5.916896
280.000000	5.930194
279.000000	5.950142
278.000000	5.986355
277.000000	5.996993
276.000000	5.980524
275.000000	6.003540
274.000000	6.053461
273.000000	6.038832
272.000000	6.044766
271.000000	6.087730
270.000000	6.116270
269.000000	6.084968
268.000000	6.151256
267.000000	6.204449
266.000000	6.190946
265.000000	6.275340
264.000000	6.262553
263.000000	6.282194
262.000000	6.329557
261.000000	6.352472
260.000000	6.303676
259.000000	6.383876
258.000000	6.425511
257.000000	6.430012
256.000000	6.475124
255.000000	6.471544
254.000000	6.453131
253.000000	6.464486
252.000000	6.496913
251.000000	6.529750
250.000000	6.519009
