PE UV       SUBTECH     SPECTRUM    ASCII       PEDS        4.00        
   -1
CICIMAUCR0015-1.Sample.ASC
24/03/08
11:15:04.00
24/03/08
11:15:04.00
Vinicio Soto Monge
C. resplendens
250,000000
1
Lambda 1050
1050L1511233
PerkinElmer UV WinLab 6.3.2.0749 / 2.02.05 Lambda 900 UV/VIS/NIR, Aug  7 2015 09:38:08

0
0
3350/servo 860,8/2
0
0
UV/VIS
1
1
1
DoubleDePol,CommonBeamDepol,RBeamAtt,SBeamAtt,60mm sphere, WB InGaAs Detector
0
0
0
0
Program
Program
3350/servo 860,8/2
3350/0,2 860,8/0,2
3350/0,2 860,8/0,2
0
15.00
 
 
 
0
 
860,8
319,2
860,8
Front
100
on
S:100 R:100
0
0
0
0
 
0
 
 
 
0
 
 
0
0
0
0
0
 
 
 
 
0
0


0
0
#HDR
-1
-1
#GR
nm
%R
1.0
0.0
2500,000000
-1,000000
2251
8
23,608200
1,584400
#DATA
250.000000	nan
251.000000	nan
252.000000	nan
253.000000	nan
254.000000	nan
255.000000	nan
256.000000	nan
257.000000	nan
258.000000	nan
259.000000	nan
260.000000	nan
261.000000	nan
262.000000	nan
263.000000	nan
264.000000	nan
265.000000	nan
266.000000	nan
267.000000	nan
268.000000	nan
269.000000	nan
270.000000	nan
271.000000	nan
272.000000	nan
273.000000	nan
274.000000	nan
275.000000	nan
276.000000	nan
277.000000	nan
278.000000	nan
279.000000	nan
280.000000	nan
281.000000	nan
282.000000	nan
283.000000	nan
284.000000	2.040997
285.000000	2.037464
286.000000	2.033878
287.000000	2.030464
288.000000	2.026966
289.000000	2.025881
290.000000	2.022278
291.000000	2.018622
292.000000	2.015929
293.000000	2.012915
294.000000	2.010089
295.000000	2.006024
296.000000	2.004259
297.000000	2.001556
298.000000	1.998688
299.000000	1.997091
300.000000	1.995967
301.000000	1.995092
302.000000	1.993117
303.000000	1.990337
304.000000	1.989276
305.000000	1.988334
306.000000	1.987311
307.000000	1.983673
308.000000	1.983638
309.000000	1.983260
310.000000	1.984472
311.000000	1.984510
312.000000	1.984804
313.000000	1.984409
314.000000	1.982063
315.000000	1.982963
316.000000	1.984997
317.000000	1.999227
318.000000	2.012719
319.000000	2.025916
320.000000	2.034705
321.000000	2.045727
322.000000	2.059051
323.000000	2.073663
324.000000	2.083372
325.000000	2.095904
326.000000	2.105940
327.000000	2.114763
328.000000	2.118272
329.000000	2.125996
330.000000	2.137128
331.000000	2.147748
332.000000	2.152979
333.000000	2.162542
334.000000	2.167574
335.000000	2.171649
336.000000	2.173428
337.000000	2.177819
338.000000	2.184678
339.000000	2.192046
340.000000	2.199875
341.000000	2.205849
342.000000	2.214669
343.000000	2.223185
344.000000	2.228759
345.000000	2.234064
346.000000	2.238851
347.000000	2.244243
348.000000	2.251988
349.000000	2.260322
350.000000	2.264527
351.000000	2.266758
352.000000	2.257153
353.000000	2.251207
354.000000	2.243588
355.000000	2.241589
356.000000	2.238220
357.000000	2.232488
358.000000	2.224988
359.000000	2.219252
360.000000	2.214368
361.000000	2.211668
362.000000	2.210828
363.000000	2.213111
364.000000	2.213965
365.000000	2.211059
366.000000	2.208223
367.000000	2.210285
368.000000	2.208937
369.000000	2.211469
370.000000	2.212925
371.000000	2.217771
372.000000	2.219953
373.000000	2.218633
374.000000	2.217978
375.000000	2.217057
376.000000	2.218465
377.000000	2.211682
378.000000	2.205726
379.000000	2.202151
380.000000	2.200645
381.000000	2.201349
382.000000	2.201734
383.000000	2.201727
384.000000	2.202085
385.000000	2.205887
386.000000	2.210187
387.000000	2.214918
388.000000	2.219375
389.000000	2.226851
390.000000	2.233927
391.000000	2.241382
392.000000	2.250360
393.000000	2.261344
394.000000	2.274535
395.000000	2.288366
396.000000	2.303503
397.000000	2.319358
398.000000	2.338441
399.000000	2.356873
400.000000	2.377935
401.000000	2.399140
402.000000	2.422124
403.000000	2.447377
404.000000	2.474241
405.000000	2.503979
406.000000	2.534733
407.000000	2.568512
408.000000	2.605215
409.000000	2.641852
410.000000	2.679763
411.000000	2.718507
412.000000	2.764412
413.000000	2.811483
414.000000	2.859709
415.000000	2.908153
416.000000	2.956943
417.000000	3.006514
418.000000	3.056891
419.000000	3.108160
420.000000	3.160462
421.000000	3.213041
422.000000	3.266047
423.000000	3.319726
424.000000	3.373362
425.000000	3.426949
426.000000	3.480603
427.000000	3.534478
428.000000	3.587753
429.000000	3.640479
430.000000	3.692554
431.000000	3.743995
432.000000	3.794956
433.000000	3.845091
434.000000	3.894102
435.000000	3.942003
436.000000	3.988867
437.000000	4.034846
438.000000	4.079641
439.000000	4.122951
440.000000	4.164388
441.000000	4.204113
442.000000	4.241975
443.000000	4.277988
444.000000	4.312412
445.000000	4.344979
446.000000	4.375866
447.000000	4.404876
448.000000	4.431915
449.000000	4.456867
450.000000	4.479847
451.000000	4.501228
452.000000	4.521207
453.000000	4.539443
454.000000	4.555330
455.000000	4.569283
456.000000	4.582029
457.000000	4.593451
458.000000	4.603717
459.000000	4.613427
460.000000	4.622177
461.000000	4.630508
462.000000	4.638880
463.000000	4.647343
464.000000	4.656079
465.000000	4.665187
466.000000	4.674581
467.000000	4.684396
468.000000	4.694890
469.000000	4.706053
470.000000	4.718658
471.000000	4.732791
472.000000	4.747774
473.000000	4.763590
474.000000	4.780712
475.000000	4.799323
476.000000	4.819173
477.000000	4.840252
478.000000	4.862981
479.000000	4.887204
480.000000	4.911459
481.000000	4.935224
482.000000	4.958975
483.000000	4.983433
484.000000	5.009509
485.000000	5.037514
486.000000	5.067186
487.000000	5.097926
488.000000	5.129783
489.000000	5.162781
490.000000	5.196659
491.000000	5.231289
492.000000	5.266584
493.000000	5.302261
494.000000	5.337588
495.000000	5.373177
496.000000	5.409096
497.000000	5.444640
498.000000	5.479554
499.000000	5.514124
500.000000	5.548488
501.000000	5.582789
502.000000	5.616530
503.000000	5.650040
504.000000	5.683041
505.000000	5.715217
506.000000	5.747284
507.000000	5.779634
508.000000	5.812535
509.000000	5.845845
510.000000	5.879340
511.000000	5.913610
512.000000	5.948758
513.000000	5.985241
514.000000	6.023250
515.000000	6.063909
516.000000	6.108291
517.000000	6.156202
518.000000	6.207307
519.000000	6.261385
520.000000	6.318894
521.000000	6.379838
522.000000	6.445064
523.000000	6.514317
524.000000	6.588140
525.000000	6.667029
526.000000	6.751458
527.000000	6.841332
528.000000	6.937095
529.000000	7.038587
530.000000	7.145513
531.000000	7.258143
532.000000	7.376712
533.000000	7.501184
534.000000	7.631906
535.000000	7.768742
536.000000	7.911916
537.000000	8.061193
538.000000	8.216482
539.000000	8.377594
540.000000	8.543906
541.000000	8.715092
542.000000	8.890963
543.000000	9.070469
544.000000	9.253378
545.000000	9.440048
546.000000	9.629904
547.000000	9.821816
548.000000	10.015699
549.000000	10.211147
550.000000	10.408003
551.000000	10.605181
552.000000	10.803090
553.000000	11.000419
554.000000	11.197635
555.000000	11.393437
556.000000	11.587096
557.000000	11.778268
558.000000	11.966808
559.000000	12.151930
560.000000	12.330578
561.000000	12.503595
562.000000	12.671770
563.000000	12.834696
564.000000	12.992520
565.000000	13.145505
566.000000	13.293252
567.000000	13.434931
568.000000	13.572282
569.000000	13.703078
570.000000	13.827497
571.000000	13.945208
572.000000	14.057593
573.000000	14.164607
574.000000	14.266550
575.000000	14.363199
576.000000	14.453997
577.000000	14.539536
578.000000	14.620302
579.000000	14.696656
580.000000	14.768028
581.000000	14.834298
582.000000	14.896954
583.000000	14.957012
584.000000	15.012974
585.000000	15.064873
586.000000	15.113180
587.000000	15.158417
588.000000	15.201181
589.000000	15.239347
590.000000	15.273417
591.000000	15.305386
592.000000	15.335755
593.000000	15.363897
594.000000	15.390319
595.000000	15.417361
596.000000	15.442971
597.000000	15.467724
598.000000	15.490435
599.000000	15.511846
600.000000	15.531045
601.000000	15.548837
602.000000	15.565672
603.000000	15.578726
604.000000	15.591394
605.000000	15.602070
606.000000	15.610425
607.000000	15.615870
608.000000	15.617904
609.000000	15.615754
610.000000	15.611262
611.000000	15.604794
612.000000	15.595417
613.000000	15.583327
614.000000	15.567566
615.000000	15.548882
616.000000	15.528426
617.000000	15.505018
618.000000	15.476611
619.000000	15.444652
620.000000	15.410015
621.000000	15.371736
622.000000	15.328349
623.000000	15.279517
624.000000	15.226896
625.000000	15.170021
626.000000	15.108604
627.000000	15.041287
628.000000	14.968476
629.000000	14.890060
630.000000	14.806814
631.000000	14.718863
632.000000	14.624928
633.000000	14.526619
634.000000	14.424227
635.000000	14.318359
636.000000	14.208477
637.000000	14.095343
638.000000	13.980269
639.000000	13.862712
640.000000	13.744147
641.000000	13.625368
642.000000	13.506747
643.000000	13.388749
644.000000	13.273055
645.000000	13.159242
646.000000	13.047900
647.000000	12.939987
648.000000	12.836097
649.000000	12.737560
650.000000	12.644357
651.000000	12.556164
652.000000	12.474253
653.000000	12.400300
654.000000	12.333572
655.000000	12.273013
656.000000	12.219828
657.000000	12.175338
658.000000	12.140067
659.000000	12.112615
660.000000	12.093819
661.000000	12.082442
662.000000	12.078990
663.000000	12.084736
664.000000	12.099341
665.000000	12.121351
666.000000	12.151622
667.000000	12.189740
668.000000	12.234930
669.000000	12.286826
670.000000	12.345358
671.000000	12.409677
672.000000	12.479701
673.000000	12.555558
674.000000	12.635515
675.000000	12.720063
676.000000	12.808921
677.000000	12.900262
678.000000	12.994205
679.000000	13.089891
680.000000	13.187422
681.000000	13.285234
682.000000	13.383112
683.000000	13.480006
684.000000	13.574813
685.000000	13.667968
686.000000	13.758136
687.000000	13.845555
688.000000	13.929301
689.000000	14.009300
690.000000	14.086425
691.000000	14.160524
692.000000	14.230008
693.000000	14.294801
694.000000	14.355731
695.000000	14.412749
696.000000	14.465825
697.000000	14.516493
698.000000	14.564169
699.000000	14.608719
700.000000	14.651375
701.000000	14.692136
702.000000	14.730807
703.000000	14.767629
704.000000	14.802298
705.000000	14.835460
706.000000	14.869009
707.000000	14.901615
708.000000	14.932918
709.000000	14.964299
710.000000	14.994430
711.000000	15.023846
712.000000	15.054162
713.000000	15.084632
714.000000	15.116122
715.000000	15.148164
716.000000	15.180844
717.000000	15.214658
718.000000	15.250888
719.000000	15.290389
720.000000	15.331767
721.000000	15.375469
722.000000	15.421049
723.000000	15.467997
724.000000	15.517575
725.000000	15.568487
726.000000	15.620965
727.000000	15.676072
728.000000	15.733577
729.000000	15.793751
730.000000	15.856074
731.000000	15.920811
732.000000	15.987077
733.000000	16.055549
734.000000	16.125471
735.000000	16.196069
736.000000	16.267500
737.000000	16.340104
738.000000	16.415005
739.000000	16.491185
740.000000	16.567822
741.000000	16.644782
742.000000	16.722334
743.000000	16.799210
744.000000	16.875687
745.000000	16.952952
746.000000	17.029768
747.000000	17.105926
748.000000	17.182014
749.000000	17.257339
750.000000	17.331673
751.000000	17.405867
752.000000	17.479122
753.000000	17.550918
754.000000	17.620808
755.000000	17.689165
756.000000	17.756170
757.000000	17.821400
758.000000	17.884588
759.000000	17.946009
760.000000	18.006648
761.000000	18.066254
762.000000	18.124033
763.000000	18.180296
764.000000	18.235749
765.000000	18.290205
766.000000	18.343120
767.000000	18.394354
768.000000	18.442861
769.000000	18.489428
770.000000	18.534405
771.000000	18.579886
772.000000	18.625735
773.000000	18.669315
774.000000	18.711943
775.000000	18.754325
776.000000	18.796476
777.000000	18.837917
778.000000	18.881056
779.000000	18.924387
780.000000	18.967050
781.000000	19.010094
782.000000	19.053460
783.000000	19.098245
784.000000	19.144962
785.000000	19.192271
786.000000	19.238782
787.000000	19.284407
788.000000	19.331373
789.000000	19.379858
790.000000	19.428442
791.000000	19.476094
792.000000	19.523001
793.000000	19.571322
794.000000	19.619611
795.000000	19.668815
796.000000	19.718242
797.000000	19.767337
798.000000	19.818046
799.000000	19.867733
800.000000	19.916653
801.000000	19.964459
802.000000	20.011054
803.000000	20.056329
804.000000	20.102675
805.000000	20.149305
806.000000	20.194933
807.000000	20.240638
808.000000	20.287020
809.000000	20.333716
810.000000	20.381256
811.000000	20.427095
812.000000	20.471007
813.000000	20.513733
814.000000	20.556546
815.000000	20.598368
816.000000	20.638793
817.000000	20.678889
818.000000	20.717196
819.000000	20.751808
820.000000	20.784695
821.000000	20.816244
822.000000	20.846392
823.000000	20.872159
824.000000	20.896915
825.000000	20.918621
826.000000	20.941920
827.000000	20.965647
828.000000	20.988998
829.000000	21.010746
830.000000	21.026682
831.000000	21.039259
832.000000	21.055345
833.000000	21.067856
834.000000	21.079208
835.000000	21.088718
836.000000	21.098848
837.000000	21.109146
838.000000	21.123674
839.000000	21.136360
840.000000	21.147274
841.000000	21.156767
842.000000	21.164729
843.000000	21.169540
844.000000	21.176176
845.000000	21.182205
846.000000	21.186775
847.000000	21.193183
848.000000	21.204570
849.000000	21.212000
850.000000	21.219773
851.000000	21.226244
852.000000	21.225502
853.000000	21.224857
854.000000	21.232032
855.000000	21.234777
856.000000	21.240796
857.000000	21.247596
858.000000	21.390840
859.000000	21.413041
860.000000	21.436092
861.000000	21.455922
862.000000	21.474536
863.000000	21.490525
864.000000	21.506097
865.000000	21.523988
866.000000	21.542005
867.000000	21.554145
868.000000	21.565808
869.000000	21.577062
870.000000	21.588758
871.000000	21.598707
872.000000	21.607506
873.000000	21.612024
874.000000	21.616145
875.000000	21.620483
876.000000	21.623877
877.000000	21.626164
878.000000	21.630095
879.000000	21.630543
880.000000	21.629382
881.000000	21.627595
882.000000	21.624200
883.000000	21.614578
884.000000	21.606916
885.000000	21.597509
886.000000	21.588052
887.000000	21.583077
888.000000	21.576203
889.000000	21.560416
890.000000	21.546468
891.000000	21.529129
892.000000	21.509980
893.000000	21.354486
894.000000	21.316311
895.000000	21.277377
896.000000	21.238703
897.000000	21.198420
898.000000	21.157851
899.000000	21.117283
900.000000	21.077089
901.000000	21.036289
902.000000	20.996929
903.000000	20.958609
904.000000	20.920663
905.000000	20.882983
906.000000	20.847014
907.000000	20.811654
908.000000	20.777163
909.000000	20.743429
910.000000	20.711194
911.000000	20.680846
912.000000	20.651554
913.000000	20.623091
914.000000	20.595446
915.000000	20.568746
916.000000	20.544086
917.000000	20.520580
918.000000	20.498086
919.000000	20.475546
920.000000	20.454583
921.000000	20.434886
922.000000	20.416623
923.000000	20.398957
924.000000	20.382174
925.000000	20.366906
926.000000	20.352226
927.000000	20.339151
928.000000	20.327274
929.000000	20.316706
930.000000	20.307634
931.000000	20.300406
932.000000	20.296271
933.000000	20.293583
934.000000	20.291789
935.000000	20.291643
936.000000	20.295160
937.000000	20.298891
938.000000	20.304063
939.000000	20.310449
940.000000	20.318463
941.000000	20.327014
942.000000	20.336440
943.000000	20.347077
944.000000	20.359229
945.000000	20.372480
946.000000	20.385949
947.000000	20.399643
948.000000	20.413923
949.000000	20.429477
950.000000	20.445223
951.000000	20.461111
952.000000	20.477657
953.000000	20.494697
954.000000	20.512620
955.000000	20.530423
956.000000	20.549163
957.000000	20.567231
958.000000	20.585077
959.000000	20.603480
960.000000	20.622263
961.000000	20.640529
962.000000	20.658551
963.000000	20.676394
964.000000	20.694540
965.000000	20.713043
966.000000	20.730754
967.000000	20.747266
968.000000	20.763891
969.000000	20.780843
970.000000	20.797311
971.000000	20.812723
972.000000	20.828774
973.000000	20.844189
974.000000	20.859066
975.000000	20.873391
976.000000	20.887263
977.000000	20.901560
978.000000	20.915089
979.000000	20.927137
980.000000	20.938577
981.000000	20.949034
982.000000	20.959026
983.000000	20.968029
984.000000	20.976054
985.000000	20.983149
986.000000	20.989446
987.000000	20.994889
988.000000	20.999134
989.000000	21.002551
990.000000	21.005429
991.000000	21.007426
992.000000	21.009911
993.000000	21.012483
994.000000	21.014609
995.000000	21.016846
996.000000	21.019129
997.000000	21.021003
998.000000	21.023286
999.000000	21.025414
1000.000000	21.026229
1001.000000	21.027257
1002.000000	21.028151
1003.000000	21.028774
1004.000000	21.029346
1005.000000	21.029477
1006.000000	21.028946
1007.000000	21.027523
1008.000000	21.025889
1009.000000	21.024257
1010.000000	21.022629
1011.000000	21.021091
1012.000000	21.019386
1013.000000	21.017720
1014.000000	21.016963
1015.000000	21.016100
1016.000000	21.016403
1017.000000	21.017323
1018.000000	21.019346
1019.000000	21.022031
1020.000000	21.025883
1021.000000	21.031246
1022.000000	21.037377
1023.000000	21.044849
1024.000000	21.053786
1025.000000	21.064234
1026.000000	21.075894
1027.000000	21.088629
1028.000000	21.102671
1029.000000	21.117963
1030.000000	21.133897
1031.000000	21.151166
1032.000000	21.169806
1033.000000	21.189109
1034.000000	21.209066
1035.000000	21.230626
1036.000000	21.252657
1037.000000	21.275280
1038.000000	21.298623
1039.000000	21.322971
1040.000000	21.348000
1041.000000	21.373549
1042.000000	21.400571
1043.000000	21.428260
1044.000000	21.456226
1045.000000	21.484471
1046.000000	21.513249
1047.000000	21.542683
1048.000000	21.572477
1049.000000	21.602869
1050.000000	21.633671
1051.000000	21.663997
1052.000000	21.694600
1053.000000	21.724860
1054.000000	21.754763
1055.000000	21.784769
1056.000000	21.814609
1057.000000	21.844700
1058.000000	21.874660
1059.000000	21.904349
1060.000000	21.933740
1061.000000	21.962409
1062.000000	21.990894
1063.000000	22.019217
1064.000000	22.047711
1065.000000	22.075763
1066.000000	22.103491
1067.000000	22.131254
1068.000000	22.158506
1069.000000	22.185646
1070.000000	22.212726
1071.000000	22.239817
1072.000000	22.267646
1073.000000	22.295980
1074.000000	22.323434
1075.000000	22.351194
1076.000000	22.379700
1077.000000	22.407886
1078.000000	22.436406
1079.000000	22.465437
1080.000000	22.494946
1081.000000	22.525171
1082.000000	22.555500
1083.000000	22.586051
1084.000000	22.616169
1085.000000	22.646274
1086.000000	22.676983
1087.000000	22.707849
1088.000000	22.739180
1089.000000	22.770520
1090.000000	22.801763
1091.000000	22.832611
1092.000000	22.862594
1093.000000	22.891934
1094.000000	22.921517
1095.000000	22.950526
1096.000000	22.979586
1097.000000	23.007969
1098.000000	23.036063
1099.000000	23.063014
1100.000000	23.089877
1101.000000	23.116403
1102.000000	23.142631
1103.000000	23.168009
1104.000000	23.193180
1105.000000	23.218154
1106.000000	23.242637
1107.000000	23.265954
1108.000000	23.288000
1109.000000	23.309909
1110.000000	23.330723
1111.000000	23.350594
1112.000000	23.370149
1113.000000	23.389037
1114.000000	23.406966
1115.000000	23.424169
1116.000000	23.439909
1117.000000	23.455109
1118.000000	23.468963
1119.000000	23.482800
1120.000000	23.495554
1121.000000	23.506123
1122.000000	23.514309
1123.000000	23.521057
1124.000000	23.525600
1125.000000	23.527940
1126.000000	23.527626
1127.000000	23.525437
1128.000000	23.520586
1129.000000	23.511926
1130.000000	23.499486
1131.000000	23.482271
1132.000000	23.460097
1133.000000	23.431351
1134.000000	23.396746
1135.000000	23.357474
1136.000000	23.311446
1137.000000	23.257746
1138.000000	23.197174
1139.000000	23.129506
1140.000000	23.055106
1141.000000	22.974949
1142.000000	22.888251
1143.000000	22.795760
1144.000000	22.697706
1145.000000	22.595600
1146.000000	22.490197
1147.000000	22.382914
1148.000000	22.274494
1149.000000	22.166031
1150.000000	22.057557
1151.000000	21.950654
1152.000000	21.843897
1153.000000	21.737894
1154.000000	21.630763
1155.000000	21.522651
1156.000000	21.413294
1157.000000	21.301760
1158.000000	21.186663
1159.000000	21.068991
1160.000000	20.947529
1161.000000	20.821943
1162.000000	20.690869
1163.000000	20.556569
1164.000000	20.418374
1165.000000	20.276874
1166.000000	20.133329
1167.000000	19.988546
1168.000000	19.843871
1169.000000	19.698383
1170.000000	19.551834
1171.000000	19.405209
1172.000000	19.260471
1173.000000	19.118020
1174.000000	18.976451
1175.000000	18.836477
1176.000000	18.697149
1177.000000	18.559591
1178.000000	18.421966
1179.000000	18.283763
1180.000000	18.142986
1181.000000	17.997577
1182.000000	17.845780
1183.000000	17.687469
1184.000000	17.523994
1185.000000	17.356094
1186.000000	17.184560
1187.000000	17.012826
1188.000000	16.841786
1189.000000	16.674826
1190.000000	16.514503
1191.000000	16.362391
1192.000000	16.220849
1193.000000	16.090440
1194.000000	15.970046
1195.000000	15.859589
1196.000000	15.758957
1197.000000	15.668254
1198.000000	15.585963
1199.000000	15.511754
1200.000000	15.445129
1201.000000	15.384866
1202.000000	15.331157
1203.000000	15.282963
1204.000000	15.241809
1205.000000	15.205611
1206.000000	15.175940
1207.000000	15.152006
1208.000000	15.133974
1209.000000	15.122546
1210.000000	15.117137
1211.000000	15.117494
1212.000000	15.123977
1213.000000	15.137863
1214.000000	15.159606
1215.000000	15.190640
1216.000000	15.231500
1217.000000	15.282357
1218.000000	15.343043
1219.000000	15.411669
1220.000000	15.486949
1221.000000	15.566906
1222.000000	15.649449
1223.000000	15.733297
1224.000000	15.817083
1225.000000	15.898417
1226.000000	15.976057
1227.000000	16.050120
1228.000000	16.119663
1229.000000	16.186420
1230.000000	16.251360
1231.000000	16.314474
1232.000000	16.377834
1233.000000	16.441440
1234.000000	16.505351
1235.000000	16.570949
1236.000000	16.639066
1237.000000	16.708731
1238.000000	16.781057
1239.000000	16.855334
1240.000000	16.932460
1241.000000	17.011740
1242.000000	17.092597
1243.000000	17.174480
1244.000000	17.257603
1245.000000	17.341774
1246.000000	17.426651
1247.000000	17.512263
1248.000000	17.598009
1249.000000	17.683786
1250.000000	17.768606
1251.000000	17.852991
1252.000000	17.936963
1253.000000	18.019709
1254.000000	18.101143
1255.000000	18.181111
1256.000000	18.259931
1257.000000	18.337589
1258.000000	18.414177
1259.000000	18.488154
1260.000000	18.560489
1261.000000	18.631766
1262.000000	18.700694
1263.000000	18.767906
1264.000000	18.833200
1265.000000	18.896583
1266.000000	18.958754
1267.000000	19.018749
1268.000000	19.076366
1269.000000	19.132820
1270.000000	19.187537
1271.000000	19.240491
1272.000000	19.292189
1273.000000	19.341789
1274.000000	19.389603
1275.000000	19.435763
1276.000000	19.480526
1277.000000	19.524043
1278.000000	19.566703
1279.000000	19.608197
1280.000000	19.648109
1281.000000	19.687717
1282.000000	19.726340
1283.000000	19.764346
1284.000000	19.801629
1285.000000	19.838411
1286.000000	19.875217
1287.000000	19.911777
1288.000000	19.947880
1289.000000	19.983914
1290.000000	20.019923
1291.000000	20.055583
1292.000000	20.090189
1293.000000	20.123771
1294.000000	20.157189
1295.000000	20.189809
1296.000000	20.221411
1297.000000	20.252246
1298.000000	20.282160
1299.000000	20.311074
1300.000000	20.339186
1301.000000	20.367117
1302.000000	20.394206
1303.000000	20.420383
1304.000000	20.446254
1305.000000	20.471137
1306.000000	20.494531
1307.000000	20.516374
1308.000000	20.537083
1309.000000	20.556769
1310.000000	20.575134
1311.000000	20.592000
1312.000000	20.607317
1313.000000	20.619854
1314.000000	20.630049
1315.000000	20.638474
1316.000000	20.644546
1317.000000	20.648100
1318.000000	20.649577
1319.000000	20.648557
1320.000000	20.644483
1321.000000	20.637237
1322.000000	20.627229
1323.000000	20.614917
1324.000000	20.599529
1325.000000	20.581406
1326.000000	20.560266
1327.000000	20.536280
1328.000000	20.509791
1329.000000	20.480331
1330.000000	20.448100
1331.000000	20.413006
1332.000000	20.374849
1333.000000	20.333320
1334.000000	20.288383
1335.000000	20.239857
1336.000000	20.187671
1337.000000	20.131680
1338.000000	20.072174
1339.000000	20.008403
1340.000000	19.940489
1341.000000	19.869229
1342.000000	19.794263
1343.000000	19.715257
1344.000000	19.632531
1345.000000	19.545457
1346.000000	19.452649
1347.000000	19.354423
1348.000000	19.252140
1349.000000	19.144989
1350.000000	19.031894
1351.000000	18.912520
1352.000000	18.786486
1353.000000	18.652777
1354.000000	18.511780
1355.000000	18.365129
1356.000000	18.214020
1357.000000	18.060146
1358.000000	17.904371
1359.000000	17.747934
1360.000000	17.591611
1361.000000	17.436391
1362.000000	17.284043
1363.000000	17.132926
1364.000000	16.980806
1365.000000	16.828466
1366.000000	16.675914
1367.000000	16.521937
1368.000000	16.367120
1369.000000	16.211997
1370.000000	16.054780
1371.000000	15.894609
1372.000000	15.731989
1373.000000	15.565903
1374.000000	15.396160
1375.000000	15.223346
1376.000000	15.048657
1377.000000	14.873171
1378.000000	14.698066
1379.000000	14.523229
1380.000000	14.350234
1381.000000	14.179909
1382.000000	14.012803
1383.000000	13.849223
1384.000000	13.687889
1385.000000	13.528934
1386.000000	13.372789
1387.000000	13.220880
1388.000000	13.075814
1389.000000	12.937889
1390.000000	12.806137
1391.000000	12.678237
1392.000000	12.553711
1393.000000	12.432129
1394.000000	12.311326
1395.000000	12.190543
1396.000000	12.073369
1397.000000	11.957843
1398.000000	11.841566
1399.000000	11.725803
1400.000000	11.610726
1401.000000	11.498091
1402.000000	11.387463
1403.000000	11.276374
1404.000000	11.164431
1405.000000	11.055171
1406.000000	10.948940
1407.000000	10.844991
1408.000000	10.745329
1409.000000	10.649651
1410.000000	10.559080
1411.000000	10.471363
1412.000000	10.386340
1413.000000	10.302769
1414.000000	10.222043
1415.000000	10.143171
1416.000000	10.066417
1417.000000	9.989469
1418.000000	9.912266
1419.000000	9.838220
1420.000000	9.766866
1421.000000	9.697429
1422.000000	9.628786
1423.000000	9.560871
1424.000000	9.492306
1425.000000	9.423957
1426.000000	9.355257
1427.000000	9.284977
1428.000000	9.213611
1429.000000	9.142563
1430.000000	9.071263
1431.000000	8.995871
1432.000000	8.916617
1433.000000	8.839226
1434.000000	8.763109
1435.000000	8.687674
1436.000000	8.610877
1437.000000	8.534711
1438.000000	8.463023
1439.000000	8.394714
1440.000000	8.327171
1441.000000	8.261531
1442.000000	8.198780
1443.000000	8.137354
1444.000000	8.078731
1445.000000	8.021137
1446.000000	7.965146
1447.000000	7.910734
1448.000000	7.858357
1449.000000	7.804754
1450.000000	7.750977
1451.000000	7.698154
1452.000000	7.647580
1453.000000	7.598131
1454.000000	7.548346
1455.000000	7.499949
1456.000000	7.453009
1457.000000	7.407951
1458.000000	7.363357
1459.000000	7.320094
1460.000000	7.277294
1461.000000	7.236643
1462.000000	7.197700
1463.000000	7.159754
1464.000000	7.122926
1465.000000	7.087071
1466.000000	7.052706
1467.000000	7.019560
1468.000000	6.985871
1469.000000	6.953417
1470.000000	6.922017
1471.000000	6.891663
1472.000000	6.862957
1473.000000	6.833329
1474.000000	6.804723
1475.000000	6.777611
1476.000000	6.751066
1477.000000	6.725131
1478.000000	6.700471
1479.000000	6.675960
1480.000000	6.652591
1481.000000	6.630343
1482.000000	6.608349
1483.000000	6.586871
1484.000000	6.567463
1485.000000	6.548731
1486.000000	6.530397
1487.000000	6.512977
1488.000000	6.496854
1489.000000	6.481560
1490.000000	6.466594
1491.000000	6.453009
1492.000000	6.440177
1493.000000	6.428303
1494.000000	6.416740
1495.000000	6.406014
1496.000000	6.395651
1497.000000	6.386117
1498.000000	6.377486
1499.000000	6.369117
1500.000000	6.362146
1501.000000	6.354757
1502.000000	6.347711
1503.000000	6.342074
1504.000000	6.336951
1505.000000	6.332151
1506.000000	6.328497
1507.000000	6.324231
1508.000000	6.320977
1509.000000	6.318451
1510.000000	6.316951
1511.000000	6.315994
1512.000000	6.315474
1513.000000	6.315657
1514.000000	6.316643
1515.000000	6.317917
1516.000000	6.319186
1517.000000	6.321294
1518.000000	6.324054
1519.000000	6.326763
1520.000000	6.330380
1521.000000	6.334383
1522.000000	6.338594
1523.000000	6.342880
1524.000000	6.347420
1525.000000	6.352049
1526.000000	6.356754
1527.000000	6.362046
1528.000000	6.367437
1529.000000	6.373369
1530.000000	6.379126
1531.000000	6.385277
1532.000000	6.391737
1533.000000	6.398011
1534.000000	6.404406
1535.000000	6.410503
1536.000000	6.417037
1537.000000	6.423814
1538.000000	6.429723
1539.000000	6.435403
1540.000000	6.440946
1541.000000	6.446249
1542.000000	6.452057
1543.000000	6.457883
1544.000000	6.463274
1545.000000	6.468237
1546.000000	6.473251
1547.000000	6.477883
1548.000000	6.482206
1549.000000	6.486703
1550.000000	6.490797
1551.000000	6.494749
1552.000000	6.498689
1553.000000	6.502506
1554.000000	6.506597
1555.000000	6.510500
1556.000000	6.513694
1557.000000	6.515960
1558.000000	6.518109
1559.000000	6.520569
1560.000000	6.522871
1561.000000	6.524357
1562.000000	6.525303
1563.000000	6.525760
1564.000000	6.525734
1565.000000	6.525151
1566.000000	6.524074
1567.000000	6.522569
1568.000000	6.520540
1569.000000	6.518443
1570.000000	6.516591
1571.000000	6.514260
1572.000000	6.511154
1573.000000	6.507934
1574.000000	6.504763
1575.000000	6.501414
1576.000000	6.497511
1577.000000	6.493471
1578.000000	6.489551
1579.000000	6.485266
1580.000000	6.481051
1581.000000	6.477357
1582.000000	6.473986
1583.000000	6.470711
1584.000000	6.467591
1585.000000	6.464851
1586.000000	6.462277
1587.000000	6.459726
1588.000000	6.457426
1589.000000	6.455483
1590.000000	6.453969
1591.000000	6.453000
1592.000000	6.453000
1593.000000	6.453614
1594.000000	6.454086
1595.000000	6.455257
1596.000000	6.457643
1597.000000	6.460906
1598.000000	6.464949
1599.000000	6.470069
1600.000000	6.476389
1601.000000	6.483934
1602.000000	6.492143
1603.000000	6.501289
1604.000000	6.511137
1605.000000	6.521123
1606.000000	6.532634
1607.000000	6.545963
1608.000000	6.559611
1609.000000	6.573794
1610.000000	6.589071
1611.000000	6.605740
1612.000000	6.623389
1613.000000	6.641463
1614.000000	6.660191
1615.000000	6.679177
1616.000000	6.698180
1617.000000	6.717983
1618.000000	6.739169
1619.000000	6.760454
1620.000000	6.782697
1621.000000	6.805474
1622.000000	6.828934
1623.000000	6.852517
1624.000000	6.876806
1625.000000	6.901491
1626.000000	6.926646
1627.000000	6.952543
1628.000000	6.978571
1629.000000	7.005289
1630.000000	7.032566
1631.000000	7.060420
1632.000000	7.088037
1633.000000	7.116034
1634.000000	7.144177
1635.000000	7.172566
1636.000000	7.200674
1637.000000	7.228806
1638.000000	7.257094
1639.000000	7.285509
1640.000000	7.313951
1641.000000	7.342769
1642.000000	7.370580
1643.000000	7.398871
1644.000000	7.427503
1645.000000	7.456100
1646.000000	7.484129
1647.000000	7.511586
1648.000000	7.539431
1649.000000	7.567289
1650.000000	7.594460
1651.000000	7.621509
1652.000000	7.647920
1653.000000	7.672866
1654.000000	7.697589
1655.000000	7.721217
1656.000000	7.743931
1657.000000	7.766006
1658.000000	7.787286
1659.000000	7.807549
1660.000000	7.826126
1661.000000	7.843660
1662.000000	7.859400
1663.000000	7.873846
1664.000000	7.886511
1665.000000	7.897629
1666.000000	7.906191
1667.000000	7.913514
1668.000000	7.918043
1669.000000	7.919920
1670.000000	7.919151
1671.000000	7.916329
1672.000000	7.910349
1673.000000	7.900917
1674.000000	7.887477
1675.000000	7.869769
1676.000000	7.847243
1677.000000	7.819266
1678.000000	7.786106
1679.000000	7.746466
1680.000000	7.701126
1681.000000	7.649640
1682.000000	7.593014
1683.000000	7.532740
1684.000000	7.469134
1685.000000	7.404986
1686.000000	7.339663
1687.000000	7.274509
1688.000000	7.208640
1689.000000	7.142471
1690.000000	7.075157
1691.000000	7.006586
1692.000000	6.937431
1693.000000	6.866731
1694.000000	6.794289
1695.000000	6.721803
1696.000000	6.649506
1697.000000	6.578046
1698.000000	6.508080
1699.000000	6.439989
1700.000000	6.373889
1701.000000	6.309183
1702.000000	6.247269
1703.000000	6.187017
1704.000000	6.129809
1705.000000	6.074746
1706.000000	6.021189
1707.000000	5.970554
1708.000000	5.922643
1709.000000	5.878500
1710.000000	5.837209
1711.000000	5.799737
1712.000000	5.766449
1713.000000	5.737569
1714.000000	5.712971
1715.000000	5.693114
1716.000000	5.678106
1717.000000	5.667237
1718.000000	5.658383
1719.000000	5.651851
1720.000000	5.646374
1721.000000	5.640540
1722.000000	5.634571
1723.000000	5.628691
1724.000000	5.622317
1725.000000	5.616957
1726.000000	5.612089
1727.000000	5.607083
1728.000000	5.602780
1729.000000	5.599691
1730.000000	5.595991
1731.000000	5.591371
1732.000000	5.586137
1733.000000	5.579443
1734.000000	5.572791
1735.000000	5.564417
1736.000000	5.556809
1737.000000	5.549160
1738.000000	5.542934
1739.000000	5.537986
1740.000000	5.535300
1741.000000	5.534137
1742.000000	5.535014
1743.000000	5.537817
1744.000000	5.542294
1745.000000	5.549377
1746.000000	5.557763
1747.000000	5.568531
1748.000000	5.580346
1749.000000	5.594671
1750.000000	5.610077
1751.000000	5.626826
1752.000000	5.643974
1753.000000	5.662451
1754.000000	5.682043
1755.000000	5.700614
1756.000000	5.719691
1757.000000	5.738371
1758.000000	5.757203
1759.000000	5.775383
1760.000000	5.792694
1761.000000	5.811131
1762.000000	5.828814
1763.000000	5.847831
1764.000000	5.867063
1765.000000	5.887949
1766.000000	5.911197
1767.000000	5.935789
1768.000000	5.962294
1769.000000	5.989460
1770.000000	6.017900
1771.000000	6.047077
1772.000000	6.075731
1773.000000	6.104389
1774.000000	6.132414
1775.000000	6.159443
1776.000000	6.185980
1777.000000	6.211709
1778.000000	6.236480
1779.000000	6.260571
1780.000000	6.283709
1781.000000	6.306174
1782.000000	6.328311
1783.000000	6.350209
1784.000000	6.371697
1785.000000	6.393309
1786.000000	6.414946
1787.000000	6.437823
1788.000000	6.461063
1789.000000	6.484000
1790.000000	6.508494
1791.000000	6.534423
1792.000000	6.561531
1793.000000	6.589380
1794.000000	6.618603
1795.000000	6.649520
1796.000000	6.680926
1797.000000	6.713660
1798.000000	6.746226
1799.000000	6.779740
1800.000000	6.813391
1801.000000	6.846300
1802.000000	6.879214
1803.000000	6.911629
1804.000000	6.942780
1805.000000	6.973231
1806.000000	7.002560
1807.000000	7.031203
1808.000000	7.059234
1809.000000	7.085443
1810.000000	7.109880
1811.000000	7.134071
1812.000000	7.157394
1813.000000	7.180440
1814.000000	7.201857
1815.000000	7.222314
1816.000000	7.241891
1817.000000	7.260449
1818.000000	7.277817
1819.000000	7.294151
1820.000000	7.309891
1821.000000	7.326231
1822.000000	7.343497
1823.000000	7.360726
1824.000000	7.376580
1825.000000	7.390694
1826.000000	7.404274
1827.000000	7.417660
1828.000000	7.431940
1829.000000	7.447251
1830.000000	7.463003
1831.000000	7.479774
1832.000000	7.497440
1833.000000	7.515257
1834.000000	7.532266
1835.000000	7.549140
1836.000000	7.566663
1837.000000	7.585111
1838.000000	7.604511
1839.000000	7.624106
1840.000000	7.643191
1841.000000	7.662520
1842.000000	7.682834
1843.000000	7.703777
1844.000000	7.724460
1845.000000	7.744180
1846.000000	7.762437
1847.000000	7.780903
1848.000000	7.801351
1849.000000	7.824877
1850.000000	7.850143
1851.000000	7.874911
1852.000000	7.898786
1853.000000	7.923509
1854.000000	7.949837
1855.000000	7.976517
1856.000000	8.002957
1857.000000	8.027543
1858.000000	8.051474
1859.000000	8.077429
1860.000000	8.105040
1861.000000	8.132714
1862.000000	8.159254
1863.000000	8.183566
1864.000000	8.205274
1865.000000	8.224354
1866.000000	8.240820
1867.000000	8.255134
1868.000000	8.268709
1869.000000	8.281503
1870.000000	8.293429
1871.000000	8.303294
1872.000000	8.310046
1873.000000	8.312980
1874.000000	8.312897
1875.000000	8.309831
1876.000000	8.302263
1877.000000	8.289429
1878.000000	8.270677
1879.000000	8.247894
1880.000000	8.222040
1881.000000	8.191306
1882.000000	8.154914
1883.000000	8.111949
1884.000000	8.062046
1885.000000	8.006923
1886.000000	7.949060
1887.000000	7.888243
1888.000000	7.824154
1889.000000	7.756263
1890.000000	7.685209
1891.000000	7.610994
1892.000000	7.535469
1893.000000	7.457780
1894.000000	7.376677
1895.000000	7.292500
1896.000000	7.205446
1897.000000	7.115903
1898.000000	7.025577
1899.000000	6.934686
1900.000000	6.844177
1901.000000	6.753191
1902.000000	6.661389
1903.000000	6.567846
1904.000000	6.473126
1905.000000	6.377340
1906.000000	6.281631
1907.000000	6.185457
1908.000000	6.089640
1909.000000	5.994300
1910.000000	5.899443
1911.000000	5.807197
1912.000000	5.717637
1913.000000	5.631486
1914.000000	5.548631
1915.000000	5.468886
1916.000000	5.393191
1917.000000	5.320363
1918.000000	5.250529
1919.000000	5.183494
1920.000000	5.119363
1921.000000	5.057629
1922.000000	4.999323
1923.000000	4.943269
1924.000000	4.888397
1925.000000	4.834409
1926.000000	4.782211
1927.000000	4.730474
1928.000000	4.680363
1929.000000	4.631920
1930.000000	4.585306
1931.000000	4.540640
1932.000000	4.497906
1933.000000	4.456417
1934.000000	4.416889
1935.000000	4.378403
1936.000000	4.340823
1937.000000	4.305254
1938.000000	4.271837
1939.000000	4.240363
1940.000000	4.211034
1941.000000	4.182146
1942.000000	4.154923
1943.000000	4.129369
1944.000000	4.106563
1945.000000	4.085997
1946.000000	4.066254
1947.000000	4.047760
1948.000000	4.030689
1949.000000	4.014480
1950.000000	4.000443
1951.000000	3.988074
1952.000000	3.977474
1953.000000	3.967931
1954.000000	3.960274
1955.000000	3.953303
1956.000000	3.948123
1957.000000	3.943489
1958.000000	3.939637
1959.000000	3.937457
1960.000000	3.937431
1961.000000	3.938409
1962.000000	3.940354
1963.000000	3.942629
1964.000000	3.945523
1965.000000	3.949666
1966.000000	3.955097
1967.000000	3.961951
1968.000000	3.968800
1969.000000	3.976360
1970.000000	3.984414
1971.000000	3.992954
1972.000000	4.002286
1973.000000	4.011917
1974.000000	4.022069
1975.000000	4.031906
1976.000000	4.043189
1977.000000	4.054874
1978.000000	4.066149
1979.000000	4.077614
1980.000000	4.089751
1981.000000	4.103103
1982.000000	4.116500
1983.000000	4.130077
1984.000000	4.144163
1985.000000	4.157560
1986.000000	4.171397
1987.000000	4.185600
1988.000000	4.200460
1989.000000	4.214454
1990.000000	4.228837
1991.000000	4.242860
1992.000000	4.257249
1993.000000	4.271729
1994.000000	4.286569
1995.000000	4.300526
1996.000000	4.313946
1997.000000	4.327429
1998.000000	4.341291
1999.000000	4.355546
2000.000000	4.369094
2001.000000	4.381940
2002.000000	4.394120
2003.000000	4.406586
2004.000000	4.418377
2005.000000	4.430006
2006.000000	4.441883
2007.000000	4.452357
2008.000000	4.462111
2009.000000	4.471337
2010.000000	4.480243
2011.000000	4.487500
2012.000000	4.494357
2013.000000	4.501594
2014.000000	4.507200
2015.000000	4.512669
2016.000000	4.516597
2017.000000	4.519546
2018.000000	4.521591
2019.000000	4.522660
2020.000000	4.523037
2021.000000	4.522266
2022.000000	4.520891
2023.000000	4.518343
2024.000000	4.515646
2025.000000	4.511666
2026.000000	4.506620
2027.000000	4.500134
2028.000000	4.493506
2029.000000	4.484989
2030.000000	4.475811
2031.000000	4.465966
2032.000000	4.455583
2033.000000	4.443754
2034.000000	4.431263
2035.000000	4.417740
2036.000000	4.403543
2037.000000	4.388534
2038.000000	4.372451
2039.000000	4.355234
2040.000000	4.336966
2041.000000	4.317580
2042.000000	4.297583
2043.000000	4.277111
2044.000000	4.255737
2045.000000	4.233826
2046.000000	4.211749
2047.000000	4.188860
2048.000000	4.165014
2049.000000	4.141569
2050.000000	4.117260
2051.000000	4.093337
2052.000000	4.070571
2053.000000	4.047683
2054.000000	4.024797
2055.000000	4.002554
2056.000000	3.981037
2057.000000	3.959906
2058.000000	3.939343
2059.000000	3.919229
2060.000000	3.900337
2061.000000	3.882011
2062.000000	3.865363
2063.000000	3.848806
2064.000000	3.833783
2065.000000	3.820257
2066.000000	3.807437
2067.000000	3.794857
2068.000000	3.783834
2069.000000	3.773640
2070.000000	3.764609
2071.000000	3.756460
2072.000000	3.749486
2073.000000	3.743780
2074.000000	3.739243
2075.000000	3.735829
2076.000000	3.733943
2077.000000	3.733220
2078.000000	3.733694
2079.000000	3.734831
2080.000000	3.736917
2081.000000	3.740369
2082.000000	3.744297
2083.000000	3.749166
2084.000000	3.754640
2085.000000	3.760703
2086.000000	3.767126
2087.000000	3.773166
2088.000000	3.780031
2089.000000	3.787349
2090.000000	3.794329
2091.000000	3.800851
2092.000000	3.807349
2093.000000	3.814377
2094.000000	3.821454
2095.000000	3.827914
2096.000000	3.833726
2097.000000	3.838943
2098.000000	3.844340
2099.000000	3.849637
2100.000000	3.854246
2101.000000	3.858717
2102.000000	3.863377
2103.000000	3.867760
2104.000000	3.872120
2105.000000	3.875874
2106.000000	3.879071
2107.000000	3.882017
2108.000000	3.885297
2109.000000	3.888931
2110.000000	3.892043
2111.000000	3.894763
2112.000000	3.897589
2113.000000	3.900389
2114.000000	3.903274
2115.000000	3.906151
2116.000000	3.908551
2117.000000	3.911823
2118.000000	3.915143
2119.000000	3.917746
2120.000000	3.920091
2121.000000	3.922403
2122.000000	3.924754
2123.000000	3.926677
2124.000000	3.928700
2125.000000	3.930723
2126.000000	3.932860
2127.000000	3.935120
2128.000000	3.936826
2129.000000	3.938051
2130.000000	3.939549
2131.000000	3.941437
2132.000000	3.943094
2133.000000	3.943457
2134.000000	3.943554
2135.000000	3.943794
2136.000000	3.943700
2137.000000	3.943114
2138.000000	3.941823
2139.000000	3.939483
2140.000000	3.937457
2141.000000	3.935714
2142.000000	3.933180
2143.000000	3.930066
2144.000000	3.926237
2145.000000	3.922049
2146.000000	3.917057
2147.000000	3.911611
2148.000000	3.905277
2149.000000	3.899411
2150.000000	3.892637
2151.000000	3.885571
2152.000000	3.877086
2153.000000	3.868371
2154.000000	3.859617
2155.000000	3.851060
2156.000000	3.842120
2157.000000	3.832174
2158.000000	3.822151
2159.000000	3.811746
2160.000000	3.801071
2161.000000	3.790349
2162.000000	3.778909
2163.000000	3.767223
2164.000000	3.755457
2165.000000	3.743500
2166.000000	3.731083
2167.000000	3.718020
2168.000000	3.705840
2169.000000	3.693449
2170.000000	3.680566
2171.000000	3.667880
2172.000000	3.655611
2173.000000	3.643097
2174.000000	3.630954
2175.000000	3.618514
2176.000000	3.605723
2177.000000	3.593509
2178.000000	3.581749
2179.000000	3.569823
2180.000000	3.558100
2181.000000	3.546971
2182.000000	3.535751
2183.000000	3.524403
2184.000000	3.512200
2185.000000	3.500683
2186.000000	3.488657
2187.000000	3.477523
2188.000000	3.465643
2189.000000	3.453589
2190.000000	3.441291
2191.000000	3.428540
2192.000000	3.415883
2193.000000	3.402320
2194.000000	3.388197
2195.000000	3.373257
2196.000000	3.357517
2197.000000	3.341066
2198.000000	3.323563
2199.000000	3.305709
2200.000000	3.286243
2201.000000	3.265903
2202.000000	3.245871
2203.000000	3.225166
2204.000000	3.203091
2205.000000	3.180560
2206.000000	3.158260
2207.000000	3.135046
2208.000000	3.111951
2209.000000	3.088900
2210.000000	3.066251
2211.000000	3.043680
2212.000000	3.020903
2213.000000	2.998054
2214.000000	2.976023
2215.000000	2.954937
2216.000000	2.933577
2217.000000	2.913677
2218.000000	2.894871
2219.000000	2.876680
2220.000000	2.859680
2221.000000	2.843771
2222.000000	2.827929
2223.000000	2.813491
2224.000000	2.800331
2225.000000	2.788086
2226.000000	2.777151
2227.000000	2.766926
2228.000000	2.758600
2229.000000	2.751169
2230.000000	2.745243
2231.000000	2.740480
2232.000000	2.736397
2233.000000	2.733657
2234.000000	2.731937
2235.000000	2.731080
2236.000000	2.731717
2237.000000	2.732497
2238.000000	2.733677
2239.000000	2.736106
2240.000000	2.739214
2241.000000	2.740811
2242.000000	2.743686
2243.000000	2.746769
2244.000000	2.749551
2245.000000	2.751674
2246.000000	2.753509
2247.000000	2.755106
2248.000000	2.756086
2249.000000	2.755671
2250.000000	2.754071
2251.000000	2.752280
2252.000000	2.748677
2253.000000	2.744343
2254.000000	2.738654
2255.000000	2.731654
2256.000000	2.723054
2257.000000	2.714589
2258.000000	2.705023
2259.000000	2.694194
2260.000000	2.681803
2261.000000	2.668574
2262.000000	2.654660
2263.000000	2.640523
2264.000000	2.626051
2265.000000	2.610691
2266.000000	2.594771
2267.000000	2.579931
2268.000000	2.564720
2269.000000	2.549074
2270.000000	2.534389
2271.000000	2.519777
2272.000000	2.505777
2273.000000	2.492180
2274.000000	2.479169
2275.000000	2.466031
2276.000000	2.454063
2277.000000	2.442514
2278.000000	2.431454
2279.000000	2.421254
2280.000000	2.412251
2281.000000	2.403414
2282.000000	2.395371
2283.000000	2.388206
2284.000000	2.381629
2285.000000	2.376123
2286.000000	2.371680
2287.000000	2.367451
2288.000000	2.363654
2289.000000	2.361254
2290.000000	2.359520
2291.000000	2.358831
2292.000000	2.358023
2293.000000	2.357243
2294.000000	2.356834
2295.000000	2.357377
2296.000000	2.357551
2297.000000	2.358171
2298.000000	2.358703
2299.000000	2.358926
2300.000000	2.359731
2301.000000	2.360643
2302.000000	2.360889
2303.000000	2.361537
2304.000000	2.362251
2305.000000	2.362960
2306.000000	2.363317
2307.000000	2.363494
2308.000000	2.363666
2309.000000	2.363586
2310.000000	2.363963
2311.000000	2.365046
2312.000000	2.366074
2313.000000	2.367531
2314.000000	2.369189
2315.000000	2.370649
2316.000000	2.372303
2317.000000	2.374429
2318.000000	2.377077
2319.000000	2.380671
2320.000000	2.384046
2321.000000	2.387549
2322.000000	2.391400
2323.000000	2.395371
2324.000000	2.400234
2325.000000	2.404869
2326.000000	2.410220
2327.000000	2.416106
2328.000000	2.422440
2329.000000	2.429654
2330.000000	2.437174
2331.000000	2.445217
2332.000000	2.453989
2333.000000	2.462040
2334.000000	2.470691
2335.000000	2.479349
2336.000000	2.488209
2337.000000	2.497420
2338.000000	2.506017
2339.000000	2.514437
2340.000000	2.522900
2341.000000	2.531163
2342.000000	2.539083
2343.000000	2.546414
2344.000000	2.553469
2345.000000	2.560026
2346.000000	2.566131
2347.000000	2.571166
2348.000000	2.575289
2349.000000	2.578711
2350.000000	2.581700
2351.000000	2.584786
2352.000000	2.587463
2353.000000	2.589234
2354.000000	2.590240
2355.000000	2.591260
2356.000000	2.592034
2357.000000	2.593357
2358.000000	2.594886
2359.000000	2.595591
2360.000000	2.596257
2361.000000	2.596769
2362.000000	2.596663
2363.000000	2.597211
2364.000000	2.597769
2365.000000	2.597926
2366.000000	2.598074
2367.000000	2.597797
2368.000000	2.597960
2369.000000	2.598117
2370.000000	2.598203
2371.000000	2.598617
2372.000000	2.598980
2373.000000	2.600006
2374.000000	2.601503
2375.000000	2.602891
2376.000000	2.604531
2377.000000	2.606189
2378.000000	2.608571
2379.000000	2.611546
2380.000000	2.614340
2381.000000	2.616831
2382.000000	2.619883
2383.000000	2.623243
2384.000000	2.626603
2385.000000	2.630351
2386.000000	2.634263
2387.000000	2.637397
2388.000000	2.640097
2389.000000	2.642917
2390.000000	2.645314
2391.000000	2.647180
2392.000000	2.648600
2393.000000	2.649389
2394.000000	2.649966
2395.000000	2.650340
2396.000000	2.650517
2397.000000	2.650291
2398.000000	2.648754
2399.000000	2.646423
2400.000000	2.644089
2401.000000	2.642026
2402.000000	2.639880
2403.000000	2.637006
2404.000000	2.634177
2405.000000	2.631091
2406.000000	2.627549
2407.000000	2.623686
2408.000000	2.619206
2409.000000	2.614449
2410.000000	2.609934
2411.000000	2.605246
2412.000000	2.600189
2413.000000	2.594451
2414.000000	2.588297
2415.000000	2.582263
2416.000000	2.576366
2417.000000	2.570223
2418.000000	2.564000
2419.000000	2.557837
2420.000000	2.550909
2421.000000	2.543289
2422.000000	2.536074
2423.000000	2.529311
2424.000000	2.521680
2425.000000	2.513494
2426.000000	2.505154
2427.000000	2.496883
2428.000000	2.488054
2429.000000	2.479166
2430.000000	2.469583
2431.000000	2.459614
2432.000000	2.450031
2433.000000	2.440534
2434.000000	2.430929
2435.000000	2.421271
2436.000000	2.411014
2437.000000	2.400474
2438.000000	2.390834
2439.000000	2.380914
2440.000000	2.370671
2441.000000	2.359891
2442.000000	2.349237
2443.000000	2.338843
2444.000000	2.328411
2445.000000	2.317223
2446.000000	2.306280
2447.000000	2.295060
2448.000000	2.283746
2449.000000	2.271951
2450.000000	2.259871
2451.000000	2.248511
2452.000000	2.236874
2453.000000	2.225394
2454.000000	2.213311
2455.000000	2.201586
2456.000000	2.190097
2457.000000	2.178886
2458.000000	2.166440
2459.000000	2.155649
2460.000000	2.145020
2461.000000	2.135054
2462.000000	2.125097
2463.000000	2.116060
2464.000000	2.106737
2465.000000	2.097697
2466.000000	2.088906
2467.000000	2.079266
2468.000000	2.072526
2469.000000	2.065246
2470.000000	2.057583
2471.000000	2.050497
2472.000000	2.043437
2473.000000	2.036729
2474.000000	2.030643
2475.000000	2.023669
2476.000000	2.018726
2477.000000	2.013131
2478.000000	2.008097
2479.000000	2.002571
2480.000000	1.999354
2481.000000	1.995289
2482.000000	1.991623
2483.000000	1.988646
2484.000000	1.987363
2485.000000	1.985883
2486.000000	1.985206
2487.000000	1.985554
2488.000000	1.985049
2489.000000	1.984137
2490.000000	1.981506
2491.000000	1.983749
2492.000000	1.984309
2493.000000	1.986149
2494.000000	1.987540
2495.000000	1.990157
2496.000000	1.995163
2497.000000	1.998334
2498.000000	2.001860
2499.000000	2.006337
2500.000000	2.014600
