Time1=100ms:Average1=5:Objective=10X:Aperture=1: (11/21/2018 11:27:18 AM)
11/21/2018 11:27:18 AM
Reflectance
10X
Ap#: 1
Avg1: 5.000000
Avg2: 0.000000
Int.Time1:100.000000

350.166136	80.583928
350.601937	81.206450
351.037728	81.860702
351.473509	82.138886
351.909281	82.079399
352.345042	82.237648
352.780794	82.593577
353.216536	82.225625
353.652267	81.800512
354.087989	81.158680
354.523701	81.210451
354.959403	81.187010
355.395095	81.282549
355.830777	81.357660
356.266449	81.796835
356.702110	81.716834
357.137762	81.831144
357.573404	82.248642
358.009035	81.754889
358.444656	81.563270
358.880268	82.047325
359.315869	81.957754
359.751459	81.914347
360.187040	82.337796
360.622610	82.430620
361.058170	82.795588
361.493720	82.601962
361.929260	82.713371
362.364789	82.212626
362.800308	81.481101
363.235816	81.203008
363.671314	81.140981
364.106802	81.367416
364.542279	81.172492
364.977746	81.253867
365.413203	81.703535
365.848649	81.272596
366.284084	80.872861
366.719509	81.162838
367.154924	81.373858
367.590328	81.205855
368.025721	81.029894
368.461104	81.185276
368.896477	81.374155
369.331838	81.214169
369.767189	80.200832
370.202530	80.179720
370.637859	80.084917
371.073178	80.208650
371.508486	80.835530
371.943784	80.905492
372.379071	80.829278
372.814347	81.084105
373.249612	81.101160
373.684866	80.294920
374.120110	79.722756
374.555343	79.403136
374.990565	79.885231
375.425776	79.820944
375.860976	80.401048
376.296165	80.048343
376.731343	80.098206
377.166511	79.949749
377.601667	79.781804
378.036812	79.713197
378.471946	79.378559
378.907070	79.162512
379.342182	79.239650
379.777283	79.510399
380.212373	78.790587
380.647452	78.688687
381.082520	78.467009
381.517576	78.486881
381.952622	78.506158
382.387656	78.549337
382.822679	78.859763
383.257691	79.421479
383.692692	79.503786
384.127681	79.481533
384.562659	78.933254
384.997626	78.470845
385.432581	78.401025
385.867525	78.402047
386.302458	78.248947
386.737379	78.379702
387.172289	78.508514
387.607188	78.817016
388.042075	78.754864
388.476951	78.374696
388.911815	78.194904
389.346668	78.341283
389.781509	78.436737
390.216338	78.616844
390.651157	78.494729
391.085963	78.981954
391.520758	78.753181
391.955541	79.184234
392.390313	78.743068
392.825073	78.978599
393.259821	79.029259
393.694558	79.514162
394.129283	79.284388
394.563996	79.893972
394.998698	80.292115
395.433388	80.220588
395.868066	79.872407
396.302732	79.480051
396.737386	79.395738
397.172029	79.302145
397.606659	79.107005
398.041278	79.073913
398.475885	78.917393
398.910480	78.659612
399.345063	78.087950
399.779634	77.306126
400.214194	76.264556
400.648741	75.457144
401.083276	74.348154
401.517799	73.188812
401.952310	71.588105
402.386809	69.515002
402.821296	66.955815
403.255771	65.167708
403.690234	63.001089
404.124684	60.770479
404.559123	57.744071
404.993549	55.389283
405.427963	52.733364
405.862365	50.422943
406.296754	48.034645
406.731131	45.963933
407.165496	43.865687
407.599849	42.090732
408.034190	40.395109
408.468518	38.792894
408.902833	37.318323
409.337137	36.095828
409.771428	34.999289
410.205706	33.834298
410.639973	32.914425
411.074226	32.069048
411.508467	31.377405
411.942696	30.667395
412.376912	30.027888
412.811116	29.572611
413.245307	29.206171
413.679486	28.825934
414.113652	28.453575
414.547805	28.090205
414.981946	27.816627
415.416074	27.562843
415.850190	27.445697
416.284293	27.272156
416.718383	27.057162
417.152460	26.864010
417.586525	26.723002
418.020577	26.694363
418.454616	26.632660
418.888643	26.605588
419.322656	26.577456
419.756657	26.557199
420.190645	26.583590
420.624620	26.614669
421.058582	26.596062
421.492531	26.611689
421.926468	26.578205
422.360391	26.602145
422.794301	26.632109
423.228199	26.707921
423.662083	26.781444
424.095955	26.798134
424.529813	26.870727
424.963658	26.920815
425.397491	26.978990
425.831310	27.067349
426.265116	27.125489
426.698909	27.145662
427.132689	27.185486
427.566455	27.269405
428.000209	27.334551
428.433949	27.379546
428.867676	27.421034
429.301389	27.423054
429.735090	27.448137
430.168777	27.489832
430.602451	27.530224
431.036111	27.553584
431.469759	27.532967
431.903392	27.535345
432.337013	27.514024
432.770620	27.525091
433.204213	27.520795
433.637794	27.496201
434.071360	27.511269
434.504914	27.513803
434.938453	27.515811
435.371979	27.541493
435.805492	27.547802
436.238991	27.540603
436.672477	27.533006
437.105949	27.501494
437.539407	27.492214
437.972852	27.438949
438.406283	27.379676
438.839700	27.330557
439.273104	27.272170
439.706494	27.185776
440.139871	27.136439
440.573233	27.062461
441.006582	26.947562
441.439917	26.861748
441.873238	26.761759
442.306546	26.664094
442.739839	26.586271
443.173119	26.504284
443.606385	26.442578
444.039636	26.351915
444.472874	26.263962
444.906099	26.185096
445.339309	26.111977
445.772505	26.046190
446.205687	25.955222
446.638855	25.860178
447.072009	25.762187
447.505149	25.630233
447.938275	25.537026
448.371387	25.430785
448.804485	25.289192
449.237569	25.147405
449.670638	24.994004
450.103694	24.825900
450.536735	24.675077
450.969762	24.511545
451.402774	24.359449
451.835773	24.197647
452.268757	24.051885
452.701727	23.870303
453.134683	23.710170
453.567624	23.537871
454.000551	23.388531
454.433464	23.246648
454.866362	23.083327
455.299246	22.932829
455.732116	22.785662
456.164971	22.609718
456.597811	22.437909
457.030638	22.247541
457.463449	22.067389
457.896246	21.902980
458.329029	21.729562
458.761797	21.556846
459.194551	21.373920
459.627290	21.195502
460.060014	21.037511
460.492724	20.858183
460.925419	20.693686
461.358099	20.517797
461.790765	20.332787
462.223416	20.188675
462.656052	20.029998
463.088674	19.869923
463.521281	19.706102
463.953873	19.538172
464.386450	19.390884
464.819012	19.258957
465.251560	19.126991
465.684093	18.996424
466.116611	18.885416
466.549114	18.792812
466.981602	18.698775
467.414075	18.597506
467.846533	18.510099
468.278977	18.423716
468.711405	18.335643
469.143818	18.253643
469.576216	18.193511
470.008600	18.120610
470.440968	18.046552
470.873321	17.971187
471.305659	17.907797
471.737982	17.854113
472.170289	17.804461
472.602582	17.756357
473.034859	17.705633
473.467122	17.659398
473.899369	17.637209
474.331600	17.623288
474.763817	17.606070
475.196018	17.597183
475.628204	17.596201
476.060375	17.601104
476.492530	17.634834
476.924670	17.665225
477.356795	17.718622
477.788904	17.765113
478.220998	17.822559
478.653076	17.897456
479.085139	17.971983
479.517186	18.052981
479.949219	18.109516
480.381235	18.185326
480.813236	18.250337
481.245221	18.318054
481.677191	18.376908
482.109146	18.437502
482.541084	18.494349
482.973008	18.536262
483.404915	18.585916
483.836807	18.639548
484.268683	18.704492
484.700544	18.742427
485.132388	18.797177
485.564217	18.844886
485.996031	18.908073
486.427828	18.967189
486.859610	19.015100
487.291376	19.059747
487.723126	19.100574
488.154860	19.151121
488.586579	19.211754
489.018281	19.239418
489.449968	19.278647
489.881639	19.294268
490.313293	19.314177
490.744932	19.332379
491.176555	19.333041
491.608162	19.318906
492.039753	19.295445
492.471328	19.260316
492.902886	19.212852
493.334429	19.173273
493.765956	19.113677
494.197466	19.070255
494.628960	19.003124
495.060439	18.952467
495.491901	18.896233
495.923347	18.852758
496.354776	18.811534
496.786190	18.778335
497.217587	18.730060
497.648968	18.678957
498.080332	18.641378
498.511681	18.589409
498.943013	18.523886
499.374328	18.455869
499.805628	18.398224
500.236911	18.339981
500.668177	18.263089
501.099427	18.191218
501.530661	18.120746
501.961878	18.050319
502.393079	17.995310
502.824264	17.937193
503.255431	17.879469
503.686583	17.830013
504.117717	17.775643
504.548835	17.736639
504.979937	17.698765
505.411022	17.657814
505.842090	17.618174
506.273142	17.589921
506.704177	17.569752
507.135195	17.551740
507.566197	17.528568
507.997182	17.529758
508.428150	17.523847
508.859102	17.529850
509.290036	17.537984
509.720954	17.558549
510.151855	17.583582
510.582739	17.630753
511.013607	17.680357
511.444457	17.732227
511.875291	17.796881
512.306107	17.880548
512.736907	17.973166
513.167690	18.063956
513.598456	18.183793
514.029205	18.333361
514.459936	18.506756
514.890651	18.695335
515.321349	18.902154
515.752030	19.130446
516.182693	19.389609
516.613340	19.676513
517.043969	19.971417
517.474582	20.290052
517.905177	20.624704
518.335755	20.980673
518.766315	21.362980
519.196859	21.753308
519.627385	22.155963
520.057894	22.573258
520.488386	23.009411
520.918860	23.445595
521.349318	23.908115
521.779757	24.384362
522.210180	24.888516
522.640585	25.388586
523.070973	25.916469
523.501343	26.458755
523.931696	27.012725
524.362031	27.591162
524.792349	28.190629
525.222650	28.811569
525.652933	29.441352
526.083198	30.078817
526.513446	30.739287
526.943677	31.408370
527.373890	32.082792
527.804085	32.750212
528.234262	33.430705
528.664422	34.117121
529.094565	34.814296
529.524689	35.495266
529.954796	36.173389
530.384885	36.856544
530.814957	37.542581
531.245011	38.241939
531.675047	38.925175
532.105065	39.612112
532.535065	40.311652
532.965048	41.014873
533.395013	41.700644
533.824959	42.390899
534.254888	43.114798
534.684799	43.834145
535.114693	44.559029
535.544568	45.258679
535.974425	45.972382
536.404264	46.661285
536.834086	47.342763
537.263889	48.025819
537.693674	48.701659
538.123441	49.368511
538.553190	50.014698
538.982921	50.687232
539.412634	51.345408
539.842329	52.023428
540.272006	52.675618
540.701664	53.332624
541.131304	53.987378
541.560926	54.630638
541.990530	55.256957
542.420116	55.893330
542.849683	56.528742
543.279232	57.190049
543.708763	57.828499
544.138275	58.454950
544.567769	59.061188
544.997245	59.686062
545.426702	60.302100
545.856141	60.926877
546.285562	61.543106
546.714964	62.156858
547.144347	62.767618
547.573713	63.363418
548.003059	63.936650
548.432387	64.520197
548.861697	65.106361
549.290988	65.686836
549.720260	66.254648
550.149514	66.819591
550.578750	67.372717
551.007966	67.902571
551.437164	68.423880
551.866344	68.930307
552.295504	69.394495
552.724646	69.877286
553.153769	70.315739
553.582874	70.755784
554.011960	71.163930
554.441027	71.565103
554.870075	71.945005
555.299104	72.314797
555.728115	72.638656
556.157106	72.970411
556.586079	73.264889
557.015033	73.569419
557.443968	73.856589
557.872884	74.126265
558.301781	74.378079
558.730659	74.642367
559.159518	74.879108
559.588358	75.119978
560.017180	75.368309
560.445982	75.607264
560.874765	75.843731
561.303528	76.091148
561.732273	76.345562
562.160999	76.597850
562.589705	76.855074
563.018393	77.123538
563.447061	77.399122
563.875710	77.670928
564.304340	77.946415
564.732950	78.225826
565.161542	78.527462
565.590114	78.824149
566.018666	79.113467
566.447200	79.411658
566.875714	79.708565
567.304208	80.024031
567.732684	80.323326
568.161140	80.636970
568.589576	80.954282
569.017993	81.269484
569.446391	81.555289
569.874769	81.841231
570.303128	82.090175
570.731467	82.345376
571.159787	82.592274
571.588087	82.836144
572.016368	83.047967
572.444629	83.254945
572.872870	83.435269
573.301092	83.608636
573.729294	83.751433
574.157476	83.885422
574.585639	83.997097
575.013782	84.092623
575.441906	84.172227
575.870009	84.237660
576.298093	84.288099
576.726157	84.334940
577.154202	84.379748
577.582226	84.429422
578.010231	84.461844
578.438216	84.480718
578.866181	84.498241
579.294126	84.528292
579.722051	84.562138
580.149957	84.606278
580.577842	84.628339
581.005707	84.673440
581.433553	84.711710
581.861378	84.774660
582.289184	84.832204
582.716969	84.889416
583.144734	84.944906
583.572479	85.033739
584.000205	85.114886
584.427910	85.216298
584.855594	85.297911
585.283259	85.375931
585.710904	85.476834
586.138528	85.561844
586.566132	85.639610
586.993716	85.731467
587.421280	85.818453
587.848823	85.915451
588.276346	86.004504
588.703849	86.076482
589.131332	86.143000
589.558794	86.208132
589.986236	86.251336
590.413657	86.297850
590.841058	86.329067
591.268438	86.362321
591.695799	86.391195
592.123138	86.422885
592.550458	86.439382
592.977756	86.445627
593.405034	86.444559
593.832292	86.459797
594.259529	86.456678
594.686746	86.440588
595.113942	86.410610
595.541117	86.381630
595.968272	86.367274
596.395406	86.339490
596.822519	86.320896
597.249612	86.303007
597.676684	86.276890
598.103735	86.265591
598.530766	86.271370
598.957775	86.255664
599.384764	86.266054
599.811733	86.272574
600.238680	86.290203
600.665606	86.302678
601.092512	86.318291
601.519397	86.333222
601.946261	86.370961
602.373104	86.394440
602.799926	86.406467
603.226727	86.430189
603.653507	86.436399
604.080266	86.441248
604.507004	86.440931
604.933721	86.424669
605.360417	86.404577
605.787092	86.363758
606.213746	86.315649
606.640379	86.254222
607.066991	86.173251
607.493581	86.089552
607.920150	86.000451
608.346699	85.894512
608.773226	85.776880
609.199731	85.644017
609.626216	85.512300
610.052679	85.350171
610.479121	85.178853
610.905542	85.004276
611.331941	84.825379
611.758319	84.618144
612.184676	84.414072
612.611011	84.201768
613.037325	83.992126
613.463617	83.761795
613.889888	83.534476
614.316138	83.299015
614.742366	83.066130
615.168573	82.827592
615.594758	82.597674
616.020921	82.395322
616.447063	82.186645
616.873184	81.984368
617.299283	81.792823
617.725360	81.626032
618.151416	81.480129
618.577450	81.324258
619.003462	81.183654
619.429453	81.061561
619.855422	80.936953
620.281369	80.827177
620.707295	80.722462
621.133199	80.618503
621.559081	80.519297
621.984941	80.434990
622.410779	80.343465
622.836596	80.254031
623.262391	80.183521
623.688163	80.105773
624.113914	80.024286
624.539644	79.934441
624.965351	79.848733
625.391036	79.748919
625.816699	79.644418
626.242340	79.519668
626.667960	79.375258
627.093557	79.208509
627.519132	79.042319
627.944685	78.843087
628.370216	78.621870
628.795725	78.396143
629.221212	78.132181
629.646677	77.853902
630.072119	77.555521
630.497540	77.231975
630.922938	76.878778
631.348314	76.502343
631.773668	76.121463
632.198999	75.717597
632.624308	75.288842
633.049595	74.853254
633.474860	74.402623
633.900102	73.932958
634.325322	73.450974
634.750520	72.964603
635.175695	72.465107
635.600848	71.965186
636.025978	71.460205
636.451086	70.930858
636.876171	70.414923
637.301234	69.869014
637.726275	69.347393
638.151293	68.809934
638.576288	68.260917
639.001261	67.712124
639.426211	67.165828
639.851139	66.612610
640.276044	66.060162
640.700927	65.501045
641.125787	64.942873
641.550624	64.389183
641.975438	63.818878
642.400230	63.253267
642.824999	62.676551
643.249745	62.096532
643.674469	61.518441
644.099169	60.934800
644.523847	60.344389
644.948502	59.761633
645.373135	59.177992
645.797744	58.599103
646.222330	58.019407
646.646894	57.449649
647.071435	56.877812
647.495953	56.322597
647.920447	55.750642
648.344919	55.185329
648.769368	54.624249
649.193794	54.058170
649.618197	53.496054
650.042576	52.919224
650.466933	52.354444
650.891267	51.752289
651.315577	51.155074
651.739864	50.551532
652.164129	49.935079
652.588370	49.305854
653.012587	48.672090
653.436782	48.033636
653.860953	47.380767
654.285102	46.709542
654.709226	46.030973
655.133328	45.353842
655.557406	44.666877
655.981461	43.981755
656.405493	43.295269
656.829501	42.612704
657.253486	41.937883
657.677448	41.272521
658.101386	40.605763
658.525301	39.945451
658.949192	39.290798
659.373060	38.639582
659.796904	37.991443
660.220725	37.358808
660.644522	36.725837
661.068296	36.120919
661.492046	35.523800
661.915772	34.937082
662.339475	34.373597
662.763154	33.820680
663.186810	33.282888
663.610442	32.766156
664.034050	32.269389
664.457635	31.789068
664.881196	31.340665
665.304733	30.904970
665.728247	30.494517
666.151736	30.112314
666.575202	29.749273
666.998644	29.406148
667.422062	29.094617
667.845457	28.798235
668.268827	28.517279
668.692174	28.265765
669.115496	28.027044
669.538795	27.807730
669.962070	27.604580
670.385321	27.419117
670.808547	27.257848
671.231750	27.119425
671.654929	27.008103
672.078084	26.923397
672.501214	26.873728
672.924321	26.845934
673.347404	26.851415
673.770462	26.895203
674.193496	26.961123
674.616506	27.057577
675.039492	27.181702
675.462454	27.328377
675.885391	27.503326
676.308305	27.700424
676.731194	27.920203
677.154058	28.160594
677.576899	28.413658
677.999715	28.670785
678.422507	28.944416
678.845274	29.223076
679.268017	29.502547
679.690736	29.784233
680.113430	30.076205
680.536100	30.369222
680.958746	30.666507
681.381367	30.979603
681.803963	31.282570
682.226535	31.606631
682.649083	31.947996
683.071605	32.302464
683.494104	32.673214
683.916578	33.050600
684.339027	33.449076
684.761451	33.865193
685.183851	34.290980
685.606227	34.731949
686.028577	35.198211
686.450903	35.669001
686.873204	36.148255
687.295481	36.645170
687.717733	37.147288
688.139959	37.655489
688.562162	38.157695
688.984339	38.678403
689.406492	39.200361
689.828619	39.726556
690.250722	40.254027
690.672800	40.790046
691.094853	41.335227
691.516881	41.877705
691.938884	42.420022
692.360863	42.974060
692.782816	43.528302
693.204744	44.086707
693.626647	44.652083
694.048526	45.227857
694.470379	45.799844
694.892207	46.382235
695.314010	46.961737
695.735788	47.540623
696.157540	48.116575
696.579268	48.686809
697.000970	49.255339
697.422648	49.815106
697.844300	50.361121
698.265926	50.896741
698.687528	51.412253
699.109104	51.909272
699.530655	52.394478
699.952181	52.863660
700.373681	53.299222
700.795156	53.727756
701.216606	54.144820
701.638030	54.552055
702.059429	54.933165
702.480803	55.310374
702.902151	55.664346
703.323473	56.016759
703.744770	56.354240
704.166042	56.683189
704.587288	57.010227
705.008509	57.335775
705.429704	57.651324
705.850873	57.952495
706.272017	58.243607
706.693135	58.525842
707.114228	58.795733
707.535295	59.052732
707.956336	59.301007
708.377352	59.527628
708.798342	59.741174
709.219306	59.942695
709.640245	60.137893
710.061157	60.319136
710.482044	60.486447
710.902905	60.652639
711.323741	60.818729
711.744550	60.994946
712.165334	61.167583
712.586092	61.344080
713.006823	61.520642
713.427529	61.709519
713.848209	61.895396
714.268863	62.080998
714.689492	62.271657
715.110094	62.465215
715.530670	62.656189
715.951220	62.851524
716.371744	63.036934
716.792242	63.220453
717.212714	63.399327
717.633159	63.564883
718.053579	63.737887
718.473973	63.904171
718.894340	64.084975
719.314681	64.255811
719.734996	64.421968
720.155285	64.587904
720.575547	64.750175
720.995784	64.914440
721.415994	65.090425
721.836177	65.260241
722.256335	65.445957
722.676466	65.622859
723.096570	65.807430
723.516649	65.990317
723.936701	66.170134
724.356726	66.340539
724.776725	66.497804
725.196698	66.650643
725.616644	66.793169
726.036564	66.932406
726.456457	67.057370
726.876324	67.166290
727.296164	67.262651
727.715977	67.353829
728.135764	67.437272
728.555525	67.516136
728.975258	67.581041
729.394966	67.642834
729.814646	67.708155
730.234300	67.757076
730.653927	67.815343
731.073527	67.859948
731.493101	67.902905
731.912648	67.940594
732.332168	67.978917
732.751661	68.009261
733.171128	68.033641
733.590568	68.056210
734.009980	68.084653
734.429366	68.099607
734.848726	68.118221
735.268058	68.117521
735.687363	68.117209
736.106641	68.122612
736.525893	68.131822
736.945117	68.141312
737.364314	68.161560
737.783485	68.195003
738.202628	68.242412
738.621744	68.309943
739.040834	68.385205
739.459896	68.488446
739.878931	68.605305
740.297939	68.754520
740.716919	68.925745
741.135873	69.102403
741.554799	69.307513
741.973698	69.531852
742.392570	69.772254
742.811415	70.036523
743.230232	70.314671
743.649022	70.612993
744.067785	70.920141
744.486521	71.235483
744.905229	71.562015
745.323909	71.894773
745.742563	72.247792
746.161189	72.609549
746.579787	72.978018
746.998358	73.351206
747.416902	73.746108
747.835418	74.138470
748.253907	74.539717
748.672368	74.950085
749.090802	75.365121
749.509208	75.776765
749.927586	76.192725
750.345937	76.602086
750.764261	77.012198
751.182556	77.410928
751.600824	77.805725
752.019065	78.192573
752.437277	78.562098
752.855462	78.949361
753.273620	79.319314
753.691749	79.677228
754.109851	80.026669
754.527925	80.362066
754.945971	80.696163
755.363989	81.015119
755.781980	81.323581
756.199943	81.621051
756.617877	81.898020
757.035784	82.165445
757.453663	82.414558
757.871514	82.631309
758.289337	82.844320
758.707132	83.011000
759.124899	83.153110
759.542639	83.282831
759.960350	83.374268
760.378033	83.429056
760.795688	83.460852
761.213314	83.474889
761.630913	83.463829
762.048484	83.436129
762.466026	83.372759
762.883541	83.297005
763.301027	83.204762
763.718485	83.095809
764.135914	82.984614
764.553316	82.857229
764.970689	82.745304
765.388034	82.629419
765.805351	82.496240
766.222639	82.360744
766.639899	82.227633
767.057131	82.107255
767.474334	81.981943
767.891509	81.856095
768.308655	81.758390
768.725773	81.647382
769.142863	81.558591
769.559924	81.476699
769.976957	81.403809
770.393961	81.355193
770.810936	81.333728
771.227883	81.316676
771.644802	81.338097
772.061692	81.387134
772.478553	81.443237
772.895386	81.517198
773.312190	81.616464
773.728965	81.749364
774.145712	81.902117
774.562430	82.069808
774.979119	82.250842
775.395780	82.471650
775.812411	82.705214
776.229014	82.962216
776.645589	83.235168
777.062134	83.520495
777.478651	83.826936
777.895138	84.128726
778.311597	84.435778
778.728027	84.760275
779.144428	85.116471
779.560800	85.475483
779.977143	85.852241
780.393458	86.231714
780.809743	86.626269
781.225999	87.011890
781.642226	87.420661
782.058425	87.811106
782.474594	88.224512
782.890734	88.630646
783.306845	89.020879
783.722926	89.417006
784.138979	89.808895
784.555003	90.191047
784.970997	90.548050
785.386962	90.905529
785.802898	91.252419
786.218805	91.583209
786.634682	91.891041
787.050531	92.176987
787.466349	92.438100
787.882139	92.681527
788.297899	92.892336
788.713630	93.104766
789.129332	93.301068
789.545004	93.479660
789.960647	93.620992
790.376260	93.736429
790.791844	93.842439
791.207399	93.925900
791.622924	93.991001
792.038419	94.016033
792.453885	94.049367
792.869321	94.051821
793.284728	94.040360
793.700106	94.028247
794.115453	93.992241
794.530771	93.930476
794.946060	93.891003
795.361319	93.819392
795.776548	93.741010
796.191747	93.678604
796.606917	93.567303
797.022057	93.469298
797.437167	93.367779
797.852248	93.276645
798.267298	93.175528
798.682319	93.065870
799.097310	92.964209
799.512271	92.855036
799.927203	92.749562
800.342104	92.679795
800.756976	92.605806
801.171818	92.535659
801.586629	92.458148
802.001411	92.381128
802.416163	92.316913
802.830885	92.278093
803.245577	92.250338
803.660238	92.215111
804.074870	92.243213
804.489472	92.278343
804.904043	92.321254
805.318585	92.361042
805.733096	92.435921
806.147577	92.528057
806.562028	92.648543
806.976449	92.774766
807.390840	92.932676
807.805200	93.076706
808.219530	93.237575
808.633830	93.435370
809.048100	93.627707
809.462339	93.865030
809.876548	94.100537
810.290727	94.336129
810.704875	94.585142
811.118993	94.832542
811.533080	95.095340
811.947137	95.362852
812.361164	95.670783
812.775160	95.971194
813.189126	96.259557
813.603061	96.551416
814.016966	96.848186
814.430840	97.147334
814.844684	97.462000
815.258497	97.769800
815.672280	98.078577
816.086032	98.373333
816.499753	98.700309
816.913444	98.987532
817.327104	99.266169
817.740733	99.562691
818.154331	99.838949
818.567899	100.095184
818.981436	100.359577
819.394943	100.579939
819.808418	100.839219
820.221863	101.041093
820.635277	101.259960
821.048660	101.463721
821.462013	101.635903
821.875334	101.805141
822.288625	101.929974
822.701884	102.050215
823.115113	102.161512
823.528311	102.234220
823.941478	102.305678
824.354614	102.370557
824.767718	102.389351
825.180792	102.357302
825.593835	102.317795
826.006847	102.262586
826.419827	102.161854
826.832777	102.070910
827.245695	101.955191
827.658582	101.777669
828.071438	101.601893
828.484263	101.409386
828.897057	101.217114
829.309819	100.962483
829.722551	100.708387
830.135251	100.446913
830.547919	100.155777
830.960557	99.862167
831.373163	99.552421
831.785738	99.233498
832.198281	98.909441
832.610793	98.562207
833.023274	98.228809
833.435723	97.890117
833.848141	97.569957
834.260528	97.239322
834.672883	96.911987
835.085206	96.614690
835.497498	96.316069
835.909758	96.015659
836.321987	95.728849
836.734185	95.445539
837.146350	95.150782
837.558485	94.917177
837.970587	94.682460
838.382658	94.429826
838.794697	94.156679
839.206705	93.937967
839.618681	93.707644
840.030625	93.482538
840.442538	93.304989
840.854418	93.095741
841.266267	92.894715
841.678084	92.688129
842.089870	92.518659
842.501623	92.349657
842.913345	92.173690
843.325035	92.011871
843.736693	91.865443
844.148319	91.770348
844.559913	91.645707
844.971475	91.538241
845.383005	91.434010
845.794504	91.335316
846.205970	91.233688
846.617404	91.121031
847.028806	91.049671
847.440176	90.967682
847.851514	90.895831
848.262820	90.799957
848.674094	90.723693
849.085336	90.652738
849.496546	90.574045
849.907723	90.523343
850.318868	90.432202
850.729981	90.330429
851.141062	90.278913
851.552110	90.230560
851.963127	90.145022
852.374111	90.082236
852.785062	89.964814
853.195982	89.830524
853.606869	89.711041
854.017723	89.589305
854.428546	89.464890
854.839336	89.311095
855.250093	89.153568
855.660818	88.998334
856.071511	88.793428
856.482171	88.590356
856.892799	88.325068
857.303394	88.085760
857.713956	87.807814
858.124486	87.529620
858.534984	87.261379
858.945449	86.982460
859.355881	86.656190
859.766280	86.309190
860.176647	85.954923
860.586982	85.610326
860.997283	85.272041
861.407552	84.909946
861.817789	84.523063
862.227992	84.110994
862.638163	83.722205
863.048301	83.326320
863.458406	82.912193
863.868478	82.482757
864.278518	82.057889
864.688524	81.655767
865.098498	81.193843
865.508439	80.778482
865.918347	80.373254
866.328222	79.939577
866.738064	79.519258
867.147873	79.098092
867.557649	78.682743
867.967392	78.249124
868.377102	77.824438
868.786779	77.418436
869.196423	77.019856
869.606034	76.629822
870.015612	76.232940
870.425156	75.874201
870.834668	75.472287
871.244146	75.074171
871.653591	74.668155
872.063003	74.277780
872.472382	73.885435
872.881728	73.510702
873.291040	73.115689
873.700319	72.717741
874.109564	72.318954
874.518777	71.943288
874.927956	71.576281
875.337102	71.196086
875.746214	70.786109
876.155293	70.414265
876.564338	70.019466
876.973350	69.653282
877.382329	69.261599
877.791274	68.911082
878.200186	68.583714
878.609064	68.248622
879.017909	67.928503
879.426720	67.588052
879.835497	67.261945
880.244241	66.945445
880.652952	66.641368
881.061629	66.378167
881.470272	66.091408
881.878881	65.812046
882.287457	65.541719
882.695999	65.260821
883.104507	64.983967
883.512982	64.743576
883.921423	64.496605
884.329830	64.285068
884.738203	64.088120
885.146543	63.882816
885.554849	63.691967
885.963120	63.510021
886.371358	63.323945
886.779563	63.154014
887.187733	62.983769
887.595869	62.814511
888.003971	62.644874
888.412040	62.501752
888.820074	62.351535
889.228074	62.219496
889.636041	62.059117
890.043973	61.902628
890.451871	61.761026
890.859736	61.584773
891.267566	61.398518
891.675362	61.231518
892.083124	61.058268
892.490851	60.892547
892.898545	60.721374
893.306204	60.520819
893.713829	60.280847
894.121420	60.071940
894.528977	59.814599
894.936499	59.590514
895.343987	59.366391
895.751441	59.097487
896.158860	58.828563
896.566246	58.558955
896.973596	58.249712
897.380913	57.936592
897.788195	57.640236
898.195442	57.300456
898.602655	56.926473
899.009834	56.553051
899.416978	56.170508
899.824088	55.778925
900.231163	55.379196
900.638204	54.944158
901.045210	54.509435
901.452181	54.071135
901.859118	53.631657
902.266021	53.198512
902.672888	52.770097
903.079721	52.283371
903.486520	51.800991
903.893283	51.352209
904.300012	50.867496
904.706707	50.411332
905.113366	49.946874
905.519991	49.444061
905.926581	48.984312
906.333136	48.531111
906.739656	48.093597
907.146142	47.664450
907.552592	47.219247
907.959008	46.776868
908.365389	46.356748
908.771735	45.936707
909.178046	45.524293
909.584322	45.119343
909.990563	44.732236
910.396769	44.362663
910.802940	43.972337
911.209076	43.612092
911.615177	43.262865
912.021243	42.910678
912.427274	42.564026
912.833270	42.244332
913.239231	41.939592
913.645156	41.621893
914.051046	41.302751
914.456902	40.985288
914.862721	40.681342
915.268506	40.380097
915.674256	40.103733
916.079970	39.820891
916.485649	39.520019
916.891292	39.253357
917.296901	38.983547
917.702474	38.704038
918.108011	38.494267
918.513514	38.230411
918.918980	38.011007
919.324412	37.778779
919.729808	37.567528
920.135169	37.361631
920.540494	37.175912
920.945783	37.023115
921.351037	36.850810
921.756256	36.703029
922.161439	36.571496
922.566586	36.431159
922.971698	36.286425
923.376775	36.176481
923.781815	36.068317
924.186820	35.977813
924.591790	35.904147
924.996723	35.826859
925.401621	35.754687
925.806484	35.698092
926.211310	35.681719
926.616101	35.672000
927.020856	35.654250
927.425575	35.637935
927.830259	35.625429
928.234906	35.632803
928.639518	35.676800
929.044094	35.708395
929.448634	35.737038
929.853138	35.764814
930.257606	35.796779
930.662038	35.821046
931.066434	35.899787
931.470795	35.912687
931.875119	35.965921
932.279407	36.007574
932.683659	36.051383
933.087875	36.085491
933.492055	36.106011
933.896199	36.140995
934.300307	36.172697
934.704379	36.199703
935.108414	36.206617
935.512414	36.224338
935.916377	36.209168
936.320304	36.189398
936.724195	36.142888
937.128049	36.100653
937.531867	36.051079
937.935649	35.998838
938.339395	35.926237
938.743104	35.812701
939.146777	35.699546
939.550414	35.585938
939.954014	35.453993
940.357578	35.330293
940.761105	35.202737
941.164596	35.022347
941.568050	34.877816
941.971468	34.707613
942.374850	34.548184
942.778195	34.392185
943.181503	34.197056
943.584775	34.004370
943.988010	33.842001
944.391209	33.646611
944.794371	33.447300
945.197496	33.236755
945.600585	33.047821
946.003637	32.844092
946.406653	32.637978
946.809632	32.416604
947.212574	32.190796
947.615479	32.013108
948.018347	31.773040
948.421179	31.600925
948.823974	31.414272
949.226732	31.249105
949.629453	31.047962
950.032138	30.863451
950.434785	30.680013
950.837396	30.483915
951.239969	30.330067
951.642506	30.143107
952.045006	29.963493
952.447469	29.822746
952.849895	29.642479
953.252283	29.489478
953.654635	29.329381
954.056950	29.159071
954.459227	29.027274
954.861468	28.882265
955.263671	28.747298
955.665838	28.584086
956.067967	28.458859
956.470059	28.332693
956.872114	28.204254
957.274131	28.080828
957.676112	27.986445
958.078055	27.914633
958.479961	27.803638
958.881829	27.667661
959.283661	27.548618
959.685455	27.470728
960.087211	27.380178
960.488931	27.284968
960.890613	27.193343
961.292257	27.121790
961.693864	27.004879
962.095434	26.936974
962.496966	26.862070
962.898461	26.776300
963.299918	26.721397
963.701338	26.650781
964.102720	26.615338
964.504065	26.610714
964.905372	26.521113
965.306641	26.503161
965.707873	26.443179
966.109068	26.420511
966.510224	26.452231
966.911343	26.402823
967.312425	26.383350
967.713468	26.342683
968.114474	26.316838
968.515442	26.273202
968.916373	26.263769
969.317265	26.272275
969.718120	26.296164
970.118937	26.300918
970.519716	26.251533
970.920458	26.267291
971.321161	26.329404
971.721827	26.383728
972.122454	26.414411
972.523044	26.403105
972.923596	26.438482
973.324110	26.459135
973.724585	26.463425
974.125023	26.523422
974.525423	26.527680
974.925785	26.573371
975.326108	26.622988
975.726394	26.617973
976.126642	26.665834
976.526851	26.738339
976.927022	26.732597
977.327155	26.761815
977.727250	26.787770
978.127307	26.812501
978.527325	26.779847
978.927306	26.686680
979.327248	26.714064
979.727151	26.687509
980.127017	26.690809
980.526844	26.714054
980.926633	26.701948
981.326383	26.675338
981.726095	26.631251
982.125769	26.585489
982.525404	26.583161
982.925001	26.544793
983.324560	26.479906
983.724079	26.414833
984.123561	26.378841
984.523004	26.208548
984.922408	26.160981
985.321774	26.099028
985.721102	26.064080
986.120390	26.018410
986.519641	25.877576
986.918852	25.805538
987.318025	25.756867
987.717159	25.684681
988.116255	25.671471
988.515312	25.535748
988.914330	25.390455
989.313310	25.371329
989.712250	25.402740
990.111152	25.397156
990.510015	25.302941
990.908840	25.462576
991.307625	25.489021
991.706372	25.493867
992.105080	25.564044
992.503749	25.549249
992.902379	25.570904
993.300970	25.647450
993.699522	25.703385
994.098035	25.710682
994.496510	25.787760
994.894945	25.684299
995.293341	25.772045
995.691698	25.941312
996.090016	25.984075
996.488296	26.114591
996.886535	26.331207
997.284736	26.481477
997.682898	26.657749
998.081021	26.799959
998.479104	26.988585
998.877148	27.303727
999.275153	27.543898
999.673119	27.719230
1000.071046	27.936553
1000.468933	28.145414
1000.866781	28.469954
1001.264590	28.699386
1001.662359	28.955374
1002.060089	29.155287
1002.457780	29.282149
1002.855431	29.694059
1003.253043	29.592222
1003.650615	29.942729
1004.048148	30.021256
1004.445642	30.302695
1004.843096	30.772714
1005.240511	31.278062
1005.637886	31.465894
1006.035221	31.748360
1006.432517	32.229571
1006.829774	32.670797
1007.226991	33.179012
1007.624168	33.377141
1008.021306	33.796489
1008.418404	34.210025
1008.815462	34.312286
1009.212481	34.694083
1009.609460	35.045957
1010.006399	35.367280
1010.403298	35.744355
1010.800158	36.099655
1011.196978	36.690145
1011.593758	37.416561
1011.990498	38.040382
1012.387199	38.680391
1012.783860	39.325323
1013.180480	39.938525
1013.577061	40.855675
1013.973602	41.470866
1014.370103	42.119057
1014.766564	42.798419
1015.162985	43.289935
1015.559366	44.220573
1015.955708	44.723054
1016.352009	45.626361
1016.748270	45.834208
1017.144491	46.122905
1017.540671	46.288831
1017.936812	47.149539
1018.332913	47.967699
1018.728973	48.405713
1019.124994	48.676108
1019.520974	49.369399
1019.916914	50.528011
1020.312814	50.803292
