Time1=100ms:Average1=5:Objective=10X:Aperture=1: (11/28/2018 10:04:06 AM)
11/28/2018 10:04:06 AM
Reflectance
10X
Ap#: 1
Avg1: 5.000000
Avg2: 0.000000
Int.Time1:100.000000

350.166136	24.070434
350.601937	24.195851
351.037728	24.094312
351.473509	23.815237
351.909281	24.089733
352.345042	24.131914
352.780794	24.262781
353.216536	24.242159
353.652267	24.488189
354.087989	24.662340
354.523701	24.905561
354.959403	24.642261
355.395095	24.495194
355.830777	24.812561
356.266449	25.167904
356.702110	25.511644
357.137762	25.382642
357.573404	25.182287
358.009035	24.915405
358.444656	24.618406
358.880268	24.711976
359.315869	24.570615
359.751459	24.578464
360.187040	24.696537
360.622610	24.852652
361.058170	24.935111
361.493720	25.080157
361.929260	24.970974
362.364789	25.004467
362.800308	24.877615
363.235816	24.968933
363.671314	25.097726
364.106802	24.862320
364.542279	24.826851
364.977746	25.130937
365.413203	24.982282
365.848649	24.902586
366.284084	24.871659
366.719509	24.608164
367.154924	24.236234
367.590328	24.060751
368.025721	24.211273
368.461104	24.463177
368.896477	24.294035
369.331838	24.029575
369.767189	23.873400
370.202530	23.674757
370.637859	23.563521
371.073178	23.312292
371.508486	23.588446
371.943784	23.776831
372.379071	23.744570
372.814347	23.642534
373.249612	23.593451
373.684866	23.784631
374.120110	23.841002
374.555343	23.790463
374.990565	23.754588
375.425776	23.649712
375.860976	23.659196
376.296165	23.591180
376.731343	23.688589
377.166511	23.363668
377.601667	23.481994
378.036812	23.764275
378.471946	23.255004
378.907070	23.264131
379.342182	23.294220
379.777283	23.356522
380.212373	23.701074
380.647452	23.942324
381.082520	24.123410
381.517576	23.862366
381.952622	23.830447
382.387656	23.679889
382.822679	23.865110
383.257691	23.828903
383.692692	23.829344
384.127681	23.701271
384.562659	23.835451
384.997626	23.899534
385.432581	23.896328
385.867525	23.856294
386.302458	24.025526
386.737379	24.030941
387.172289	24.207641
387.607188	24.282163
388.042075	24.175165
388.476951	24.252520
388.911815	24.440109
389.346668	24.703490
389.781509	24.765526
390.216338	24.670385
390.651157	24.512699
391.085963	24.543849
391.520758	24.502865
391.955541	24.903313
392.390313	24.643277
392.825073	24.539877
393.259821	24.662700
393.694558	24.566547
394.129283	24.334029
394.563996	24.045992
394.998698	24.241168
395.433388	24.315846
395.868066	24.580983
396.302732	24.732242
396.737386	24.659607
397.172029	24.345454
397.606659	24.380282
398.041278	24.590689
398.475885	24.307570
398.910480	24.105106
399.345063	23.799875
399.779634	23.686232
400.214194	23.569328
400.648741	22.989950
401.083276	22.822714
401.517799	22.316246
401.952310	21.569158
402.386809	20.977836
402.821296	20.329979
403.255771	19.726469
403.690234	19.183604
404.124684	18.824600
404.559123	18.280707
404.993549	17.626560
405.427963	17.001014
405.862365	16.670089
406.296754	16.417168
406.731131	15.920504
407.165496	15.582997
407.599849	15.261279
408.034190	14.938815
408.468518	14.605075
408.902833	14.238293
409.337137	13.990028
409.771428	13.637857
410.205706	13.398728
410.639973	13.143991
411.074226	12.977649
411.508467	12.709178
411.942696	12.677542
412.376912	12.651371
412.811116	12.600465
413.245307	12.600499
413.679486	12.596245
414.113652	12.583853
414.547805	12.556776
414.981946	12.615410
415.416074	12.699725
415.850190	12.719245
416.284293	12.733979
416.718383	12.790905
417.152460	12.853456
417.586525	12.922619
418.020577	12.975270
418.454616	13.034162
418.888643	13.111283
419.322656	13.151140
419.756657	13.155226
420.190645	13.182215
420.624620	13.182653
421.058582	13.195545
421.492531	13.221317
421.926468	13.219061
422.360391	13.278262
422.794301	13.329008
423.228199	13.440508
423.662083	13.561046
424.095955	13.712851
424.529813	13.838714
424.963658	14.004686
425.397491	14.084103
425.831310	14.188380
426.265116	14.297922
426.698909	14.375880
427.132689	14.463560
427.566455	14.560739
428.000209	14.641797
428.433949	14.752717
428.867676	14.857346
429.301389	14.963074
429.735090	15.089573
430.168777	15.191845
430.602451	15.264987
431.036111	15.290048
431.469759	15.331176
431.903392	15.361445
432.337013	15.375279
432.770620	15.418438
433.204213	15.483093
433.637794	15.542918
434.071360	15.642305
434.504914	15.749396
434.938453	15.880565
435.371979	16.036196
435.805492	16.170616
436.238991	16.310896
436.672477	16.426957
437.105949	16.543486
437.539407	16.618808
437.972852	16.678648
438.406283	16.723700
438.839700	16.790482
439.273104	16.847352
439.706494	16.933973
440.139871	17.005233
440.573233	17.095582
441.006582	17.183329
441.439917	17.271783
441.873238	17.298248
442.306546	17.305333
442.739839	17.310747
443.173119	17.289003
443.606385	17.254268
444.039636	17.224267
444.472874	17.207235
444.906099	17.187635
445.339309	17.198630
445.772505	17.224933
446.205687	17.254005
446.638855	17.293598
447.072009	17.354860
447.505149	17.396820
447.938275	17.441016
448.371387	17.470078
448.804485	17.484068
449.237569	17.472352
449.670638	17.430039
450.103694	17.388298
450.536735	17.321438
450.969762	17.266164
451.402774	17.221556
451.835773	17.184110
452.268757	17.156062
452.701727	17.143507
453.134683	17.116178
453.567624	17.107806
454.000551	17.081003
454.433464	17.039462
454.866362	16.988343
455.299246	16.944712
455.732116	16.906146
456.164971	16.852459
456.597811	16.785874
457.030638	16.742140
457.463449	16.719266
457.896246	16.712654
458.329029	16.702752
458.761797	16.684582
459.194551	16.682733
459.627290	16.703281
460.060014	16.725207
460.492724	16.759111
460.925419	16.810636
461.358099	16.871723
461.790765	16.930193
462.223416	16.988133
462.656052	17.053252
463.088674	17.115941
463.521281	17.186027
463.953873	17.254629
464.386450	17.352764
464.819012	17.451586
465.251560	17.570201
465.684093	17.713875
466.116611	17.857536
466.549114	18.006002
466.981602	18.168984
467.414075	18.344127
467.846533	18.519993
468.278977	18.685865
468.711405	18.841600
469.143818	18.983835
469.576216	19.129989
470.008600	19.270541
470.440968	19.403418
470.873321	19.516228
471.305659	19.635226
471.737982	19.763334
472.170289	19.894660
472.602582	20.017040
473.034859	20.128372
473.467122	20.247821
473.899369	20.362392
474.331600	20.483635
474.763817	20.595529
475.196018	20.728195
475.628204	20.875163
476.060375	21.007900
476.492530	21.163481
476.924670	21.310243
477.356795	21.435009
477.788904	21.531240
478.220998	21.632858
478.653076	21.714953
479.085139	21.769760
479.517186	21.822680
479.949219	21.894349
480.381235	21.974823
480.813236	22.045838
481.245221	22.134767
481.677191	22.238898
482.109146	22.351733
482.541084	22.468110
482.973008	22.568522
483.404915	22.656987
483.836807	22.727629
484.268683	22.787836
484.700544	22.805800
485.132388	22.813132
485.564217	22.808959
485.996031	22.785537
486.427828	22.755558
486.859610	22.718990
487.291376	22.675735
487.723126	22.636155
488.154860	22.603043
488.586579	22.577073
489.018281	22.547749
489.449968	22.545425
489.881639	22.558397
490.313293	22.602570
490.744932	22.679035
491.176555	22.758943
491.608162	22.828484
492.039753	22.895738
492.471328	22.959420
492.902886	22.987717
493.334429	22.998924
493.765956	22.975534
494.197466	22.950820
494.628960	22.937057
495.060439	22.934128
495.491901	22.950406
495.923347	23.003971
496.354776	23.090137
496.786190	23.222064
497.217587	23.380637
497.648968	23.557142
498.080332	23.740712
498.511681	23.921159
498.943013	24.096558
499.374328	24.251843
499.805628	24.389637
500.236911	24.513497
500.668177	24.625371
501.099427	24.705558
501.530661	24.771201
501.961878	24.819304
502.393079	24.863562
502.824264	24.917942
503.255431	24.950939
503.686583	24.985344
504.117717	25.023747
504.548835	25.075612
504.979937	25.146700
505.411022	25.242677
505.842090	25.352506
506.273142	25.488364
506.704177	25.627877
507.135195	25.783688
507.566197	25.936256
507.997182	26.067967
508.428150	26.167861
508.859102	26.254667
509.290036	26.300784
509.720954	26.323937
510.151855	26.321690
510.582739	26.307490
511.013607	26.304249
511.444457	26.332042
511.875291	26.384520
512.306107	26.464746
512.736907	26.594051
513.167690	26.765408
513.598456	26.946690
514.029205	27.140429
514.459936	27.330483
514.890651	27.504995
515.321349	27.650877
515.752030	27.775336
516.182693	27.842459
516.613340	27.871371
517.043969	27.852716
517.474582	27.799452
517.905177	27.720502
518.335755	27.604537
518.766315	27.470564
519.196859	27.327848
519.627385	27.193870
520.057894	27.061996
520.488386	26.949318
520.918860	26.864051
521.349318	26.800563
521.779757	26.778166
522.210180	26.786031
522.640585	26.830244
523.070973	26.912688
523.501343	27.009204
523.931696	27.116312
524.362031	27.209105
524.792349	27.272737
525.222650	27.297018
525.652933	27.264511
526.083198	27.175516
526.513446	27.011014
526.943677	26.797835
527.373890	26.538438
527.804085	26.247067
528.234262	25.951448
528.664422	25.651910
529.094565	25.351812
529.524689	25.089965
529.954796	24.863501
530.384885	24.670743
530.814957	24.523271
531.245011	24.410556
531.675047	24.348089
532.105065	24.316513
532.535065	24.304326
532.965048	24.301471
533.395013	24.303185
533.824959	24.295416
534.254888	24.277484
534.684799	24.240133
535.114693	24.180426
535.544568	24.095808
535.974425	23.988356
536.404264	23.845999
536.834086	23.683025
537.263889	23.486495
537.693674	23.280786
538.123441	23.069735
538.553190	22.853922
538.982921	22.647303
539.412634	22.447181
539.842329	22.268315
540.272006	22.105940
540.701664	21.960941
541.131304	21.840315
541.560926	21.720821
541.990530	21.618572
542.420116	21.522119
542.849683	21.413846
543.279232	21.296133
543.708763	21.164253
544.138275	21.002609
544.567769	20.816750
544.997245	20.591616
545.426702	20.334140
545.856141	20.049413
546.285562	19.741688
546.714964	19.416536
547.144347	19.083923
547.573713	18.747385
548.003059	18.416411
548.432387	18.102236
548.861697	17.802239
549.290988	17.523368
549.720260	17.281098
550.149514	17.076322
550.578750	16.918456
551.007966	16.803501
551.437164	16.724590
551.866344	16.696313
552.295504	16.711996
552.724646	16.768211
553.153769	16.858536
553.582874	16.980060
554.011960	17.120945
554.441027	17.275382
554.870075	17.450075
555.299104	17.632568
555.728115	17.820935
556.157106	18.012306
556.586079	18.202353
557.015033	18.385731
557.443968	18.568242
557.872884	18.745977
558.301781	18.918707
558.730659	19.080025
559.159518	19.232847
559.588358	19.373133
560.017180	19.497573
560.445982	19.609132
560.874765	19.699931
561.303528	19.777918
561.732273	19.826915
562.160999	19.857331
562.589705	19.856296
563.018393	19.822164
563.447061	19.762233
563.875710	19.665827
564.304340	19.536287
564.732950	19.383685
565.161542	19.194766
565.590114	18.972743
566.018666	18.728616
566.447200	18.455879
566.875714	18.173675
567.304208	17.881201
567.732684	17.579930
568.161140	17.276051
568.589576	16.970271
569.017993	16.669840
569.446391	16.384938
569.874769	16.120514
570.303128	15.884596
570.731467	15.670750
571.159787	15.485688
571.588087	15.341831
572.016368	15.239588
572.444629	15.170555
572.872870	15.148793
573.301092	15.170500
573.729294	15.236630
574.157476	15.336481
574.585639	15.459851
575.013782	15.610918
575.441906	15.785250
575.870009	15.973808
576.298093	16.175370
576.726157	16.379686
577.154202	16.601837
577.582226	16.825153
578.010231	17.052971
578.438216	17.282917
578.866181	17.526580
579.294126	17.769044
579.722051	18.025687
580.149957	18.277938
580.577842	18.528003
581.005707	18.780317
581.433553	19.024702
581.861378	19.258804
582.289184	19.477324
582.716969	19.674625
583.144734	19.853659
583.572479	20.006498
584.000205	20.131081
584.427910	20.229441
584.855594	20.290799
585.283259	20.324284
585.710904	20.328953
586.138528	20.291431
586.566132	20.227156
586.993716	20.123935
587.421280	19.990216
587.848823	19.829606
588.276346	19.641539
588.703849	19.420669
589.131332	19.184910
589.558794	18.929971
589.986236	18.656292
590.413657	18.364961
590.841058	18.066908
591.268438	17.760405
591.695799	17.449504
592.123138	17.138141
592.550458	16.826708
592.977756	16.519231
593.405034	16.219430
593.832292	15.938455
594.259529	15.674869
594.686746	15.426279
595.113942	15.197845
595.541117	14.991072
595.968272	14.810403
596.395406	14.649117
596.822519	14.502296
597.249612	14.382556
597.676684	14.283035
598.103735	14.201073
598.530766	14.131170
598.957775	14.084031
599.384764	14.060745
599.811733	14.055300
600.238680	14.072585
600.665606	14.115305
601.092512	14.183813
601.519397	14.277430
601.946261	14.405481
602.373104	14.560126
602.799926	14.736630
603.226727	14.946383
603.653507	15.181395
604.080266	15.438999
604.507004	15.723945
604.933721	16.029516
605.360417	16.349743
605.787092	16.689253
606.213746	17.038576
606.640379	17.397308
607.066991	17.759227
607.493581	18.123296
607.920150	18.489149
608.346699	18.853833
608.773226	19.218255
609.199731	19.575476
609.626216	19.926468
610.052679	20.275081
610.479121	20.608702
610.905542	20.931362
611.331941	21.242727
611.758319	21.540932
612.184676	21.826026
612.611011	22.080288
613.037325	22.315827
613.463617	22.526315
613.889888	22.705560
614.316138	22.857347
614.742366	22.981752
615.168573	23.070172
615.594758	23.136092
616.020921	23.181880
616.447063	23.205956
616.873184	23.210867
617.299283	23.193320
617.725360	23.163140
618.151416	23.118439
618.577450	23.070080
619.003462	23.014256
619.429453	22.949877
619.855422	22.886346
620.281369	22.816042
620.707295	22.740151
621.133199	22.665332
621.559081	22.578564
621.984941	22.482984
622.410779	22.375861
622.836596	22.257378
623.262391	22.124900
623.688163	21.980388
624.113914	21.821575
624.539644	21.653444
624.965351	21.470621
625.391036	21.272529
625.816699	21.077923
626.242340	20.875447
626.667960	20.663092
627.093557	20.455388
627.519132	20.245229
627.944685	20.039129
628.370216	19.834872
628.795725	19.622146
629.221212	19.409824
629.646677	19.186858
630.072119	18.963241
630.497540	18.737460
630.922938	18.501367
631.348314	18.263022
631.773668	18.012337
632.198999	17.759919
632.624308	17.505256
633.049595	17.250802
633.474860	17.000273
633.900102	16.753407
634.325322	16.510093
634.750520	16.290379
635.175695	16.089542
635.600848	15.916044
636.025978	15.770856
636.451086	15.654345
636.876171	15.574379
637.301234	15.533292
637.726275	15.533305
638.151293	15.576566
638.576288	15.661806
639.001261	15.787954
639.426211	15.955219
639.851139	16.167189
640.276044	16.415154
640.700927	16.704526
641.125787	17.017831
641.550624	17.361836
641.975438	17.730784
642.400230	18.120613
642.824999	18.531543
643.249745	18.957590
643.674469	19.398939
644.099169	19.854669
644.523847	20.321733
644.948502	20.799517
645.373135	21.288341
645.797744	21.780550
646.222330	22.272727
646.646894	22.769917
647.071435	23.265213
647.495953	23.744246
647.920447	24.208452
648.344919	24.656368
648.769368	25.069177
649.193794	25.442422
649.618197	25.787592
650.042576	26.086504
650.466933	26.340514
650.891267	26.537038
651.315577	26.683201
651.739864	26.779542
652.164129	26.822710
652.588370	26.811048
653.012587	26.749175
653.436782	26.637841
653.860953	26.488406
654.285102	26.302407
654.709226	26.086729
655.133328	25.843938
655.557406	25.582343
655.981461	25.307677
656.405493	25.021840
656.829501	24.724342
657.253486	24.415909
657.677448	24.102994
658.101386	23.790908
658.525301	23.469966
658.949192	23.151572
659.373060	22.834807
659.796904	22.518423
660.220725	22.205607
660.644522	21.907212
661.068296	21.619823
661.492046	21.345598
661.915772	21.093766
662.339475	20.872861
662.763154	20.673873
663.186810	20.514982
663.610442	20.386692
664.034050	20.299329
664.457635	20.253655
664.881196	20.244770
665.304733	20.273773
665.728247	20.342845
666.151736	20.446243
666.575202	20.581962
666.998644	20.735728
667.422062	20.920644
667.845457	21.118439
668.268827	21.333359
668.692174	21.551602
669.115496	21.768360
669.538795	21.971563
669.962070	22.161650
670.385321	22.335975
670.808547	22.487592
671.231750	22.605947
671.654929	22.699777
672.078084	22.768751
672.501214	22.796673
672.924321	22.787913
673.347404	22.751963
673.770462	22.688451
674.193496	22.595806
674.616506	22.472828
675.039492	22.329791
675.462454	22.162075
675.885391	21.970278
676.308305	21.766039
676.731194	21.551013
677.154058	21.329507
677.576899	21.093338
677.999715	20.851731
678.422507	20.605424
678.845274	20.358725
679.268017	20.118087
679.690736	19.879441
680.113430	19.648634
680.536100	19.423703
680.958746	19.214660
681.381367	19.014862
681.803963	18.838389
682.226535	18.680700
682.649083	18.545780
683.071605	18.441146
683.494104	18.364780
683.916578	18.320630
684.339027	18.311522
684.761451	18.335583
685.183851	18.386733
685.606227	18.474108
686.028577	18.591446
686.450903	18.738720
686.873204	18.907939
687.295481	19.103377
687.717733	19.321551
688.139959	19.552929
688.562162	19.803015
688.984339	20.068563
689.406492	20.333581
689.828619	20.602433
690.250722	20.866341
690.672800	21.132643
691.094853	21.393047
691.516881	21.646176
691.938884	21.888118
692.360863	22.114083
692.782816	22.328933
693.204744	22.537298
693.626647	22.733124
694.048526	22.914326
694.470379	23.092093
694.892207	23.251777
695.314010	23.412174
695.735788	23.566374
696.157540	23.714082
696.579268	23.855632
697.000970	23.996992
697.422648	24.134132
697.844300	24.270452
698.265926	24.405191
698.687528	24.539668
699.109104	24.672151
699.530655	24.796230
699.952181	24.922998
700.373681	25.043978
700.795156	25.159437
701.216606	25.267433
701.638030	25.366666
702.059429	25.454577
702.480803	25.529331
702.902151	25.586657
703.323473	25.630869
703.744770	25.654297
704.166042	25.659053
704.587288	25.647178
705.008509	25.621186
705.429704	25.582414
705.850873	25.532588
706.272017	25.468895
706.693135	25.398283
707.114228	25.323315
707.535295	25.237160
707.956336	25.155462
708.377352	25.066116
708.798342	24.977153
709.219306	24.890851
709.640245	24.810485
710.061157	24.730390
710.482044	24.659829
710.902905	24.595476
711.323741	24.539717
711.744550	24.491190
712.165334	24.449146
712.586092	24.419180
713.006823	24.401960
713.427529	24.388503
713.848209	24.384118
714.268863	24.388671
714.689492	24.398473
715.110094	24.413671
715.530670	24.436588
715.951220	24.462579
716.371744	24.494103
716.792242	24.534593
717.212714	24.575733
717.633159	24.617834
718.053579	24.662539
718.473973	24.704550
718.894340	24.741245
719.314681	24.767549
719.734996	24.786791
720.155285	24.800416
720.575547	24.804099
720.995784	24.795143
721.415994	24.771009
721.836177	24.737213
722.256335	24.681693
722.676466	24.603816
723.096570	24.509416
723.516649	24.393192
723.936701	24.253596
724.356726	24.089429
724.776725	23.905854
725.196698	23.705944
725.616644	23.486383
726.036564	23.245904
726.456457	22.996295
726.876324	22.735894
727.296164	22.469556
727.715977	22.200412
728.135764	21.932036
728.555525	21.663441
728.975258	21.414531
729.394966	21.174974
729.814646	20.949600
730.234300	20.740454
730.653927	20.553652
731.073527	20.383835
731.493101	20.243638
731.912648	20.129705
732.332168	20.047742
732.751661	19.996756
733.171128	19.972445
733.590568	19.981120
734.009980	20.017054
734.429366	20.082971
734.848726	20.174938
735.268058	20.294872
735.687363	20.448673
736.106641	20.624913
736.525893	20.820738
736.945117	21.040116
737.364314	21.272421
737.783485	21.525447
738.202628	21.789422
738.621744	22.063882
739.040834	22.347734
739.459896	22.632719
739.878931	22.919701
740.297939	23.205606
740.716919	23.486119
741.135873	23.760102
741.554799	24.026418
741.973698	24.273466
742.392570	24.508937
742.811415	24.719718
743.230232	24.920264
743.649022	25.109833
744.067785	25.280523
744.486521	25.422843
744.905229	25.552873
745.323909	25.663680
745.742563	25.757675
746.161189	25.834947
746.579787	25.895568
746.998358	25.942568
747.416902	25.965639
747.835418	25.984113
748.253907	25.988795
748.672368	25.977708
749.090802	25.958289
749.509208	25.934383
749.927586	25.899875
750.345937	25.866022
750.764261	25.824363
751.182556	25.784201
751.600824	25.739829
752.019065	25.689521
752.437277	25.640463
752.855462	25.600294
753.273620	25.561138
753.691749	25.526426
754.109851	25.499669
754.527925	25.475528
754.945971	25.458072
755.363989	25.441244
755.781980	25.431990
756.199943	25.425957
756.617877	25.413493
757.035784	25.396882
757.453663	25.385809
757.871514	25.362564
758.289337	25.338754
758.707132	25.296390
759.124899	25.241639
759.542639	25.170354
759.960350	25.088001
760.378033	25.000052
760.795688	24.885365
761.213314	24.769067
761.630913	24.636202
762.048484	24.491132
762.466026	24.333730
762.883541	24.161896
763.301027	23.984741
763.718485	23.802679
764.135914	23.615838
764.553316	23.423461
764.970689	23.239224
765.388034	23.063512
765.805351	22.886609
766.222639	22.718475
766.639899	22.556349
767.057131	22.409384
767.474334	22.280690
767.891509	22.166982
768.308655	22.069855
768.725773	21.995121
769.142863	21.939784
769.559924	21.899417
769.976957	21.886701
770.393961	21.898013
770.810936	21.938564
771.227883	22.005090
771.644802	22.096001
772.061692	22.219797
772.478553	22.372550
772.895386	22.555219
773.312190	22.764240
773.728965	23.002405
774.145712	23.262307
774.562430	23.547737
774.979119	23.862097
775.395780	24.196667
775.812411	24.553493
776.229014	24.929904
776.645589	25.314942
777.062134	25.706425
777.478651	26.107692
777.895138	26.505090
778.311597	26.900048
778.728027	27.294303
779.144428	27.685833
779.560800	28.058202
779.977143	28.418272
780.393458	28.761186
780.809743	29.080702
781.225999	29.372211
781.642226	29.637307
782.058425	29.870111
782.474594	30.077029
782.890734	30.250527
783.306845	30.378244
783.722926	30.466382
784.138979	30.499533
784.555003	30.497460
784.970997	30.443386
785.386962	30.347271
785.802898	30.198738
786.218805	30.013305
786.634682	29.785929
787.050531	29.517793
787.466349	29.223537
787.882139	28.885925
788.297899	28.523402
788.713630	28.148797
789.129332	27.746439
789.545004	27.334604
789.960647	26.929109
790.376260	26.532054
790.791844	26.146004
791.207399	25.765254
791.622924	25.388985
792.038419	25.025232
792.453885	24.692309
792.869321	24.374977
793.284728	24.090481
793.700106	23.822815
794.115453	23.593233
794.530771	23.378420
794.946060	23.203090
795.361319	23.048075
795.776548	22.913312
796.191747	22.803494
796.606917	22.713326
797.022057	22.645335
797.437167	22.595911
797.852248	22.561908
798.267298	22.544118
798.682319	22.534637
799.097310	22.534780
799.512271	22.547823
799.927203	22.563783
800.342104	22.580265
800.756976	22.607730
801.171818	22.636020
801.586629	22.657187
802.001411	22.682863
802.416163	22.703223
802.830885	22.728612
803.245577	22.740796
803.660238	22.752748
804.074870	22.754679
804.489472	22.757271
804.904043	22.758586
805.318585	22.751656
805.733096	22.743326
806.147577	22.727782
806.562028	22.721481
806.976449	22.707349
807.390840	22.696930
807.805200	22.681156
808.219530	22.667975
808.633830	22.648323
809.048100	22.635693
809.462339	22.623994
809.876548	22.622142
810.290727	22.624866
810.704875	22.629710
811.118993	22.640288
811.533080	22.659147
811.947137	22.690216
812.361164	22.724826
812.775160	22.764438
813.189126	22.817358
813.603061	22.869764
814.016966	22.936891
814.430840	23.001364
814.844684	23.079989
815.258497	23.171032
815.672280	23.258978
816.086032	23.356746
816.499753	23.450864
816.913444	23.566661
817.327104	23.683975
817.740733	23.798138
818.154331	23.927716
818.567899	24.060190
818.981436	24.190823
819.394943	24.327514
819.808418	24.473136
820.221863	24.619643
820.635277	24.755112
821.048660	24.884853
821.462013	25.033376
821.875334	25.171285
822.288625	25.317636
822.701884	25.447960
823.115113	25.562374
823.528311	25.681754
823.941478	25.786217
824.354614	25.877800
824.767718	25.948611
825.180792	25.993269
825.593835	26.031430
826.006847	26.032203
826.419827	26.011162
826.832777	25.960552
827.245695	25.899184
827.658582	25.800817
828.071438	25.681040
828.484263	25.524433
828.897057	25.344347
829.309819	25.153616
829.722551	24.931230
830.135251	24.676734
830.547919	24.407525
830.960557	24.117072
831.373163	23.802039
831.785738	23.475950
832.198281	23.141195
832.610793	22.788714
833.023274	22.435246
833.435723	22.085423
833.848141	21.740703
834.260528	21.392765
834.672883	21.053196
835.085206	20.713923
835.497498	20.386716
835.909758	20.088197
836.321987	19.788087
836.734185	19.510619
837.146350	19.254176
837.558485	19.022337
837.970587	18.809392
838.382658	18.614326
838.794697	18.456341
839.206705	18.324163
839.618681	18.205149
840.030625	18.119268
840.442538	18.062435
840.854418	18.018634
841.266267	18.007580
841.678084	18.027682
842.089870	18.054306
842.501623	18.102460
842.913345	18.183665
843.325035	18.297325
843.736693	18.431058
844.148319	18.582328
844.559913	18.750248
844.971475	18.925950
845.383005	19.125406
845.794504	19.343749
846.205970	19.578554
846.617404	19.825419
847.028806	20.085969
847.440176	20.353770
847.851514	20.634854
848.262820	20.921769
848.674094	21.210702
849.085336	21.496658
849.496546	21.786954
849.907723	22.077682
850.318868	22.359711
850.729981	22.643847
851.141062	22.933070
851.552110	23.193684
851.963127	23.442951
852.374111	23.698717
852.785062	23.932043
853.195982	24.145494
853.606869	24.354188
854.017723	24.554942
854.428546	24.723622
854.839336	24.886697
855.250093	25.037697
855.660818	25.176832
856.071511	25.284888
856.482171	25.378420
856.892799	25.454076
857.303394	25.511559
857.713956	25.563670
858.124486	25.599295
858.534984	25.621022
858.945449	25.608286
859.355881	25.590868
859.766280	25.557564
860.176647	25.527139
860.586982	25.478312
860.997283	25.424458
861.407552	25.340745
861.817789	25.277536
862.227992	25.189743
862.638163	25.107244
863.048301	25.010871
863.458406	24.923546
863.868478	24.821417
864.278518	24.744589
864.688524	24.677422
865.098498	24.613608
865.508439	24.550852
865.918347	24.505779
866.328222	24.478165
866.738064	24.441310
867.147873	24.433502
867.557649	24.442999
867.967392	24.471208
868.377102	24.494161
868.786779	24.542059
869.196423	24.600002
869.606034	24.707366
870.015612	24.826087
870.425156	24.949583
870.834668	25.084540
871.244146	25.236599
871.653591	25.406671
872.063003	25.582640
872.472382	25.760269
872.881728	25.931544
873.291040	26.108657
873.700319	26.281668
874.109564	26.461874
874.518777	26.637096
874.927956	26.804125
875.337102	26.944341
875.746214	27.095734
876.155293	27.222569
876.564338	27.335045
876.973350	27.427463
877.382329	27.501612
877.791274	27.551682
878.200186	27.592418
878.609064	27.607468
879.017909	27.600069
879.426720	27.567674
879.835497	27.519008
880.244241	27.449472
880.652952	27.365656
881.061629	27.261575
881.470272	27.134593
881.878881	27.003926
882.287457	26.845264
882.695999	26.675177
883.104507	26.495814
883.512982	26.325500
883.921423	26.145797
884.329830	25.982699
884.738203	25.808578
885.146543	25.646022
885.554849	25.492927
885.963120	25.344416
886.371358	25.221455
886.779563	25.113711
887.187733	25.001976
887.595869	24.908456
888.003971	24.844522
888.412040	24.795538
888.820074	24.767224
889.228074	24.757097
889.636041	24.762642
890.043973	24.781786
890.451871	24.817286
890.859736	24.867763
891.267566	24.943747
891.675362	25.012319
892.083124	25.102779
892.490851	25.201133
892.898545	25.296875
893.306204	25.389234
893.713829	25.501101
894.121420	25.621475
894.528977	25.736888
894.936499	25.847740
895.343987	25.969934
895.751441	26.090820
896.158860	26.193571
896.566246	26.299349
896.973596	26.373305
897.380913	26.464235
897.788195	26.531418
898.195442	26.602097
898.602655	26.657566
899.009834	26.700092
899.416978	26.720815
899.824088	26.727230
900.231163	26.759347
900.638204	26.762968
901.045210	26.737388
901.452181	26.711488
901.859118	26.670520
902.266021	26.629105
902.672888	26.577148
903.079721	26.515161
903.486520	26.445480
903.893283	26.333367
904.300012	26.243624
904.706707	26.147758
905.113366	26.039891
905.519991	25.956629
905.926581	25.864604
906.333136	25.758840
906.739656	25.652071
907.146142	25.543054
907.552592	25.441687
907.959008	25.329957
908.365389	25.230642
908.771735	25.134633
909.178046	25.045277
909.584322	24.957938
909.990563	24.858667
910.396769	24.781545
910.802940	24.682691
911.209076	24.601409
911.615177	24.513023
912.021243	24.446851
912.427274	24.392350
912.833270	24.316223
913.239231	24.246995
913.645156	24.205361
914.051046	24.154921
914.456902	24.109681
914.862721	24.048198
915.268506	23.997938
915.674256	23.966064
916.079970	23.911370
916.485649	23.898348
916.891292	23.868302
917.296901	23.844968
917.702474	23.807668
918.108011	23.775472
918.513514	23.745321
918.918980	23.720297
919.324412	23.689673
919.729808	23.656151
920.135169	23.644998
920.540494	23.633383
920.945783	23.613708
921.351037	23.593387
921.756256	23.574767
922.161439	23.554937
922.566586	23.548401
922.971698	23.526744
923.376775	23.532781
923.781815	23.525278
924.186820	23.512806
924.591790	23.516266
924.996723	23.515229
925.401621	23.515347
925.806484	23.517721
926.211310	23.486803
926.616101	23.453076
927.020856	23.444387
927.425575	23.428380
927.830259	23.397714
928.234906	23.353372
928.639518	23.342378
929.044094	23.299491
929.448634	23.269447
929.853138	23.234007
930.257606	23.197391
930.662038	23.138740
931.066434	23.062644
931.470795	23.023142
931.875119	22.974990
932.279407	22.935926
932.683659	22.857379
933.087875	22.782492
933.492055	22.729780
933.896199	22.668544
934.300307	22.579661
934.704379	22.509899
935.108414	22.435600
935.512414	22.341283
935.916377	22.219454
936.320304	22.127833
936.724195	22.016581
937.128049	21.879927
937.531867	21.743807
937.935649	21.585257
938.339395	21.427647
938.743104	21.293266
939.146777	21.154021
939.550414	20.989486
939.954014	20.822766
940.357578	20.676055
940.761105	20.520575
941.164596	20.334582
941.568050	20.178889
941.971468	19.983274
942.374850	19.789188
942.778195	19.605310
943.181503	19.427827
943.584775	19.273347
943.988010	19.069824
944.391209	18.887002
944.794371	18.711278
945.197496	18.524138
945.600585	18.344110
946.003637	18.152382
946.406653	17.959275
946.809632	17.788745
947.212574	17.607356
947.615479	17.399918
948.018347	17.237482
948.421179	17.099340
948.823974	16.920516
949.226732	16.765934
949.629453	16.617047
950.032138	16.474183
950.434785	16.339296
950.837396	16.211365
951.239969	16.068915
951.642506	15.946273
952.045006	15.826241
952.447469	15.713875
952.849895	15.568451
953.252283	15.434815
953.654635	15.305697
954.056950	15.169511
954.459227	15.077594
954.861468	14.996129
955.263671	14.884942
955.665838	14.816367
956.067967	14.729922
956.470059	14.652441
956.872114	14.565580
957.274131	14.450977
957.676112	14.368652
958.078055	14.305876
958.479961	14.209531
958.881829	14.100023
959.283661	13.994079
959.685455	13.900096
960.087211	13.856723
960.488931	13.786417
960.890613	13.720210
961.292257	13.621005
961.693864	13.594136
962.095434	13.522074
962.496966	13.433825
962.898461	13.378633
963.299918	13.350886
963.701338	13.299473
964.102720	13.251626
964.504065	13.197002
964.905372	13.151519
965.306641	13.122847
965.707873	13.112319
966.109068	13.113481
966.510224	13.108130
966.911343	13.072704
967.312425	13.053553
967.713468	13.071676
968.114474	13.015054
968.515442	12.985728
968.916373	13.003425
969.317265	13.003811
969.718120	13.041222
970.118937	13.042377
970.519716	13.033698
970.920458	13.040037
971.321161	13.103235
971.721827	13.119210
972.122454	13.128567
972.523044	13.149549
972.923596	13.182691
973.324110	13.192511
973.724585	13.252602
974.125023	13.238446
974.525423	13.279694
974.925785	13.366567
975.326108	13.415037
975.726394	13.397078
976.126642	13.412872
976.526851	13.437907
976.927022	13.448345
977.327155	13.494703
977.727250	13.528004
978.127307	13.538089
978.527325	13.555463
978.927306	13.538400
979.327248	13.577764
979.727151	13.536775
980.127017	13.588452
980.526844	13.646485
980.926633	13.659105
981.326383	13.594649
981.726095	13.605502
982.125769	13.601658
982.525404	13.614526
982.925001	13.573689
983.324560	13.582613
983.724079	13.556137
984.123561	13.555723
984.523004	13.598347
984.922408	13.563794
985.321774	13.562103
985.721102	13.524122
986.120390	13.517998
986.519641	13.520208
986.918852	13.492719
987.318025	13.485414
987.717159	13.394916
988.116255	13.414521
988.515312	13.430770
988.914330	13.425964
989.313310	13.437593
989.712250	13.394511
990.111152	13.395063
990.510015	13.389861
990.908840	13.392209
991.307625	13.440436
991.706372	13.411727
992.105080	13.444161
992.503749	13.332098
992.902379	13.286172
993.300970	13.348106
993.699522	13.417813
994.098035	13.425373
994.496510	13.440982
994.894945	13.474373
995.293341	13.588775
995.691698	13.600854
996.090016	13.643670
996.488296	13.709371
996.886535	13.770880
997.284736	13.797594
997.682898	13.743798
998.081021	13.800915
998.479104	13.817065
998.877148	13.942923
999.275153	13.895959
999.673119	13.785514
1000.071046	13.877108
1000.468933	13.874332
1000.866781	13.850288
1001.264590	13.815205
1001.662359	13.817789
1002.060089	13.853480
1002.457780	13.887652
1002.855431	13.911461
1003.253043	13.927040
1003.650615	13.984278
1004.048148	14.061990
1004.445642	14.134429
1004.843096	14.203711
1005.240511	14.231253
1005.637886	14.196002
1006.035221	14.362875
1006.432517	14.470460
1006.829774	14.496343
1007.226991	14.510225
1007.624168	14.528132
1008.021306	14.563432
1008.418404	14.533809
1008.815462	14.494734
1009.212481	14.360786
1009.609460	14.340869
1010.006399	14.408200
1010.403298	14.420757
1010.800158	14.460512
1011.196978	14.168795
1011.593758	14.458800
1011.990498	14.689670
1012.387199	14.715396
1012.783860	14.856342
1013.180480	15.094792
1013.577061	15.082312
1013.973602	15.214340
1014.370103	15.136982
1014.766564	15.194175
1015.162985	15.297989
1015.559366	15.261292
1015.955708	15.200586
1016.352009	15.187157
1016.748270	15.273487
1017.144491	15.443160
1017.540671	15.519885
1017.936812	15.611448
1018.332913	15.259740
1018.728973	15.075439
1019.124994	14.886603
1019.520974	15.022676
1019.916914	14.849825
1020.312814	14.789777
