Time1=100ms:Average1=5:Objective=10X:Aperture=1: (11/28/2018 10:19:11 AM)
11/28/2018 10:19:11 AM
Reflectance
10X
Ap#: 1
Avg1: 5.000000
Avg2: 0.000000
Int.Time1:100.000000

350.166136	67.608518
350.601937	67.128580
351.037728	66.964977
351.473509	66.458137
351.909281	66.617774
352.345042	66.585238
352.780794	66.689932
353.216536	66.742597
353.652267	66.412948
354.087989	66.462024
354.523701	66.818941
354.959403	66.763234
355.395095	66.775417
355.830777	66.578460
356.266449	66.843408
356.702110	67.016584
357.137762	67.380342
357.573404	67.481771
358.009035	67.649154
358.444656	67.508703
358.880268	67.580602
359.315869	67.473525
359.751459	67.374431
360.187040	67.217065
360.622610	67.136989
361.058170	67.152958
361.493720	67.153545
361.929260	67.330535
362.364789	67.705914
362.800308	67.610147
363.235816	67.317593
363.671314	67.448472
364.106802	67.347664
364.542279	67.714438
364.977746	67.989348
365.413203	67.611623
365.848649	68.092455
366.284084	68.020889
366.719509	68.095280
367.154924	68.250444
367.590328	67.998934
368.025721	68.043247
368.461104	68.021295
368.896477	67.825627
369.331838	67.722912
369.767189	67.709977
370.202530	67.563305
370.637859	67.527675
371.073178	67.631071
371.508486	67.562615
371.943784	67.211263
372.379071	66.846221
372.814347	66.663766
373.249612	66.730535
373.684866	67.076146
374.120110	67.026181
374.555343	67.151062
374.990565	67.112393
375.425776	67.278448
375.860976	67.035842
376.296165	67.037102
376.731343	67.221298
377.166511	66.827091
377.601667	67.151494
378.036812	66.855549
378.471946	66.553525
378.907070	66.695743
379.342182	66.197306
379.777283	66.634783
380.212373	66.418427
380.647452	66.076671
381.082520	66.483328
381.517576	66.253763
381.952622	66.365124
382.387656	66.485178
382.822679	66.562905
383.257691	66.455970
383.692692	66.571280
384.127681	66.600398
384.562659	66.632097
384.997626	66.295529
385.432581	66.557235
385.867525	66.614974
386.302458	67.031735
386.737379	67.296949
387.172289	67.466164
387.607188	67.686638
388.042075	67.683606
388.476951	67.768666
388.911815	67.500848
389.346668	67.519485
389.781509	67.765104
390.216338	67.672414
390.651157	67.817062
391.085963	67.796183
391.520758	67.947422
391.955541	67.983857
392.390313	68.213866
392.825073	68.291453
393.259821	68.264477
393.694558	68.590334
394.129283	68.626305
394.563996	68.305282
394.998698	68.137336
395.433388	68.048046
395.868066	68.146440
396.302732	68.061882
396.737386	68.201333
397.172029	67.950649
397.606659	67.653362
398.041278	67.074977
398.475885	67.101133
398.910480	66.725671
399.345063	66.166615
399.779634	65.400277
400.214194	64.197391
400.648741	62.995123
401.083276	61.761310
401.517799	60.210504
401.952310	58.576260
402.386809	56.385267
402.821296	54.224736
403.255771	51.830506
403.690234	49.594073
404.124684	47.093615
404.559123	44.697084
404.993549	42.126207
405.427963	39.859354
405.862365	37.531315
406.296754	35.485662
406.731131	33.217580
407.165496	31.180891
407.599849	29.403890
408.034190	27.620368
408.468518	26.064788
408.902833	24.649299
409.337137	23.268790
409.771428	21.997604
410.205706	20.800513
410.639973	19.744930
411.074226	18.821320
411.508467	17.977447
411.942696	17.160833
412.376912	16.465784
412.811116	15.822007
413.245307	15.180079
413.679486	14.667367
414.113652	14.148350
414.547805	13.689613
414.981946	13.311954
415.416074	12.937012
415.850190	12.628347
416.284293	12.325208
416.718383	12.004412
417.152460	11.739658
417.586525	11.512779
418.020577	11.264072
418.454616	11.048965
418.888643	10.844962
419.322656	10.662738
419.756657	10.502588
420.190645	10.352707
420.624620	10.188656
421.058582	10.043971
421.492531	9.901155
421.926468	9.765664
422.360391	9.626412
422.794301	9.531661
423.228199	9.449261
423.662083	9.381453
424.095955	9.291841
424.529813	9.213110
424.963658	9.146572
425.397491	9.055845
425.831310	8.991026
426.265116	8.941457
426.698909	8.894426
427.132689	8.860555
427.566455	8.814805
428.000209	8.767033
428.433949	8.706174
428.867676	8.662728
429.301389	8.598991
429.735090	8.573585
430.168777	8.547517
430.602451	8.511417
431.036111	8.454305
431.469759	8.424326
431.903392	8.389689
432.337013	8.356302
432.770620	8.311129
433.204213	8.270814
433.637794	8.240365
434.071360	8.225636
434.504914	8.208502
434.938453	8.204803
435.371979	8.179818
435.805492	8.182056
436.238991	8.163860
436.672477	8.153444
437.105949	8.137840
437.539407	8.139652
437.972852	8.127688
438.406283	8.113618
438.839700	8.135819
439.273104	8.141592
439.706494	8.132361
440.139871	8.143121
440.573233	8.132255
441.006582	8.145813
441.439917	8.153548
441.873238	8.159272
442.306546	8.170159
442.739839	8.186466
443.173119	8.171824
443.606385	8.191815
444.039636	8.197713
444.472874	8.215134
444.906099	8.224947
445.339309	8.240136
445.772505	8.259602
446.205687	8.308459
446.638855	8.340133
447.072009	8.369998
447.505149	8.400607
447.938275	8.426090
448.371387	8.460470
448.804485	8.495354
449.237569	8.506804
449.670638	8.534960
450.103694	8.546771
450.536735	8.557427
450.969762	8.579514
451.402774	8.618430
451.835773	8.653965
452.268757	8.674596
452.701727	8.695371
453.134683	8.727546
453.567624	8.755919
454.000551	8.790780
454.433464	8.812701
454.866362	8.845388
455.299246	8.882137
455.732116	8.913259
456.164971	8.967243
456.597811	9.017970
457.030638	9.064662
457.463449	9.128685
457.896246	9.197586
458.329029	9.259932
458.761797	9.324736
459.194551	9.373655
459.627290	9.404133
460.060014	9.446727
460.492724	9.495179
460.925419	9.528753
461.358099	9.573673
461.790765	9.614580
462.223416	9.652088
462.656052	9.707019
463.088674	9.751209
463.521281	9.817494
463.953873	9.887029
464.386450	9.950130
464.819012	10.002812
465.251560	10.063930
465.684093	10.125281
466.116611	10.189356
466.549114	10.240959
466.981602	10.285852
467.414075	10.333586
467.846533	10.388967
468.278977	10.443567
468.711405	10.511501
469.143818	10.575615
469.576216	10.631492
470.008600	10.709234
470.440968	10.783861
470.873321	10.849622
471.305659	10.910764
471.737982	10.977614
472.170289	11.036847
472.602582	11.101238
473.034859	11.160572
473.467122	11.227839
473.899369	11.282331
474.331600	11.344254
474.763817	11.416601
475.196018	11.488441
475.628204	11.571363
476.060375	11.647416
476.492530	11.738662
476.924670	11.824565
477.356795	11.910750
477.788904	11.999761
478.220998	12.091736
478.653076	12.174186
479.085139	12.255677
479.517186	12.329131
479.949219	12.414319
480.381235	12.492241
480.813236	12.568140
481.245221	12.644208
481.677191	12.726949
482.109146	12.800994
482.541084	12.889096
482.973008	12.981288
483.404915	13.059059
483.836807	13.132192
484.268683	13.209548
484.700544	13.283753
485.132388	13.354699
485.564217	13.430249
485.996031	13.507617
486.427828	13.583080
486.859610	13.646565
487.291376	13.716997
487.723126	13.787649
488.154860	13.850940
488.586579	13.926361
489.018281	14.003191
489.449968	14.083696
489.881639	14.161426
490.313293	14.245107
490.744932	14.334242
491.176555	14.428551
491.608162	14.530658
492.039753	14.643222
492.471328	14.746373
492.902886	14.855963
493.334429	14.961910
493.765956	15.067200
494.197466	15.172446
494.628960	15.285335
495.060439	15.391636
495.491901	15.493304
495.923347	15.595628
496.354776	15.687534
496.786190	15.798939
497.217587	15.916764
497.648968	16.034098
498.080332	16.160679
498.511681	16.281088
498.943013	16.400647
499.374328	16.517638
499.805628	16.628344
500.236911	16.737310
500.668177	16.850255
501.099427	16.950939
501.530661	17.044817
501.961878	17.130851
502.393079	17.204748
502.824264	17.280746
503.255431	17.352490
503.686583	17.426096
504.117717	17.500804
504.548835	17.561064
504.979937	17.626034
505.411022	17.683868
505.842090	17.758485
506.273142	17.819110
506.704177	17.872709
507.135195	17.923958
507.566197	17.970873
507.997182	17.990545
508.428150	17.998415
508.859102	17.999815
509.290036	17.985085
509.720954	17.969745
510.151855	17.937536
510.582739	17.895017
511.013607	17.855597
511.444457	17.813401
511.875291	17.783430
512.306107	17.763448
512.736907	17.751849
513.167690	17.752946
513.598456	17.762372
514.029205	17.782451
514.459936	17.818185
514.890651	17.856455
515.321349	17.892446
515.752030	17.943202
516.182693	17.993688
516.613340	18.042011
517.043969	18.090197
517.474582	18.129829
517.905177	18.182412
518.335755	18.238971
518.766315	18.317488
519.196859	18.410620
519.627385	18.520258
520.057894	18.660944
520.488386	18.835837
520.918860	19.030145
521.349318	19.264517
521.779757	19.526128
522.210180	19.821309
522.640585	20.131772
523.070973	20.474443
523.501343	20.838527
523.931696	21.225761
524.362031	21.618863
524.792349	22.031942
525.222650	22.458194
525.652933	22.892588
526.083198	23.344805
526.513446	23.806116
526.943677	24.301888
527.373890	24.808109
527.804085	25.342533
528.234262	25.920508
528.664422	26.544928
529.094565	27.214993
529.524689	27.935965
529.954796	28.697251
530.384885	29.508094
530.814957	30.373403
531.245011	31.291998
531.675047	32.260861
532.105065	33.257814
532.535065	34.307974
532.965048	35.407578
533.395013	36.547484
533.824959	37.693943
534.254888	38.876804
534.684799	40.111464
535.114693	41.363765
535.544568	42.615605
535.974425	43.892999
536.404264	45.170319
536.834086	46.449023
537.263889	47.726722
537.693674	48.997758
538.123441	50.273744
538.553190	51.545435
538.982921	52.810143
539.412634	54.058070
539.842329	55.324218
540.272006	56.559517
540.701664	57.780409
541.131304	58.992597
541.560926	60.168309
541.990530	61.323480
542.420116	62.455907
542.849683	63.534812
543.279232	64.584907
543.708763	65.596412
544.138275	66.580487
544.567769	67.528705
544.997245	68.426812
545.426702	69.297913
545.856141	70.129129
546.285562	70.928354
546.714964	71.686637
547.144347	72.433885
547.573713	73.155596
548.003059	73.849565
548.432387	74.530912
548.861697	75.183622
549.290988	75.817967
549.720260	76.433663
550.149514	77.039783
550.578750	77.618752
551.007966	78.188837
551.437164	78.734181
551.866344	79.251867
552.295504	79.747956
552.724646	80.237354
553.153769	80.687421
553.582874	81.121601
554.011960	81.535781
554.441027	81.905485
554.870075	82.259925
555.299104	82.581815
555.728115	82.876057
556.157106	83.149063
556.586079	83.393261
557.015033	83.614737
557.443968	83.797223
557.872884	83.965314
558.301781	84.122181
558.730659	84.244374
559.159518	84.353534
559.588358	84.465385
560.017180	84.577068
560.445982	84.695310
560.874765	84.798757
561.303528	84.883560
561.732273	84.967323
562.160999	85.067111
562.589705	85.168777
563.018393	85.263508
563.447061	85.384169
563.875710	85.499810
564.304340	85.638096
564.732950	85.786595
565.161542	85.939303
565.590114	86.108722
566.018666	86.299611
566.447200	86.485407
566.875714	86.691125
567.304208	86.915164
567.732684	87.147740
568.161140	87.381193
568.589576	87.630698
569.017993	87.874116
569.446391	88.106419
569.874769	88.350925
570.303128	88.580263
570.731467	88.809928
571.159787	89.002843
571.588087	89.194695
572.016368	89.391762
572.444629	89.561664
572.872870	89.706011
573.301092	89.845565
573.729294	89.937687
574.157476	90.038037
574.585639	90.114734
575.013782	90.185105
575.441906	90.237952
575.870009	90.267215
576.298093	90.297084
576.726157	90.293363
577.154202	90.295844
577.582226	90.287905
578.010231	90.275786
578.438216	90.271128
578.866181	90.267468
579.294126	90.236431
579.722051	90.234617
580.149957	90.228586
580.577842	90.226992
581.005707	90.217090
581.433553	90.223218
581.861378	90.203500
582.289184	90.195182
582.716969	90.209758
583.144734	90.227078
583.572479	90.261270
584.000205	90.291930
584.427910	90.343392
584.855594	90.376795
585.283259	90.422830
585.710904	90.476121
586.138528	90.521503
586.566132	90.556025
586.993716	90.605119
587.421280	90.633667
587.848823	90.673917
588.276346	90.691619
588.703849	90.687814
589.131332	90.694206
589.558794	90.668658
589.986236	90.625483
590.413657	90.568358
590.841058	90.482494
591.268438	90.364725
591.695799	90.243888
592.123138	90.105214
592.550458	89.934852
592.977756	89.735860
593.405034	89.510390
593.832292	89.264337
594.259529	89.016319
594.686746	88.740907
595.113942	88.472570
595.541117	88.181154
595.968272	87.865150
596.395406	87.521551
596.822519	87.172078
597.249612	86.816503
597.676684	86.460878
598.103735	86.106266
598.530766	85.733105
598.957775	85.357777
599.384764	84.992778
599.811733	84.625300
600.238680	84.259597
600.665606	83.894844
601.092512	83.538443
601.519397	83.172069
601.946261	82.832730
602.373104	82.481981
602.799926	82.139108
603.226727	81.795099
603.653507	81.459537
604.080266	81.137663
604.507004	80.821931
604.933721	80.488396
605.360417	80.161147
605.787092	79.847747
606.213746	79.543830
606.640379	79.240832
607.066991	78.940436
607.493581	78.659290
607.920150	78.370923
608.346699	78.067987
608.773226	77.778062
609.199731	77.489230
609.626216	77.212907
610.052679	76.918103
610.479121	76.637472
610.905542	76.329289
611.331941	76.034689
611.758319	75.727644
612.184676	75.422279
612.611011	75.103293
613.037325	74.778910
613.463617	74.455886
613.889888	74.110145
614.316138	73.750881
614.742366	73.396841
615.168573	73.032779
615.594758	72.650617
616.020921	72.270662
616.447063	71.891216
616.873184	71.495798
617.299283	71.070294
617.725360	70.631092
618.151416	70.188669
618.577450	69.723463
619.003462	69.253807
619.429453	68.760833
619.855422	68.255283
620.281369	67.728633
620.707295	67.167651
621.133199	66.604114
621.559081	66.029981
621.984941	65.431022
622.410779	64.831891
622.836596	64.208196
623.262391	63.590748
623.688163	62.947859
624.113914	62.304600
624.539644	61.653012
624.965351	61.005376
625.391036	60.347479
625.816699	59.686415
626.242340	59.024223
626.667960	58.349775
627.093557	57.681467
627.519132	57.006129
627.944685	56.338370
628.370216	55.652742
628.795725	54.972829
629.221212	54.275261
629.646677	53.582264
630.072119	52.879089
630.497540	52.183308
630.922938	51.495481
631.348314	50.805642
631.773668	50.123138
632.198999	49.434104
632.624308	48.757040
633.049595	48.087697
633.474860	47.433070
633.900102	46.803333
634.325322	46.185654
634.750520	45.585823
635.175695	45.004460
635.600848	44.439637
636.025978	43.908337
636.451086	43.400280
636.876171	42.923466
637.301234	42.470828
637.726275	42.038060
638.151293	41.644400
638.576288	41.273211
639.001261	40.946777
639.426211	40.657174
639.851139	40.400979
640.276044	40.192707
640.700927	40.037965
641.125787	39.919749
641.550624	39.857623
641.975438	39.859320
642.400230	39.927646
642.824999	40.048342
643.249745	40.244571
643.674469	40.506548
644.099169	40.839956
644.523847	41.246119
644.948502	41.722462
645.373135	42.281424
645.797744	42.911016
646.222330	43.608084
646.646894	44.369215
647.071435	45.194631
647.495953	46.066119
647.920447	46.987496
648.344919	47.945108
648.769368	48.935143
649.193794	49.938032
649.618197	50.953953
650.042576	51.965946
650.466933	52.991285
650.891267	53.997910
651.315577	54.968440
651.739864	55.928940
652.164129	56.840287
652.588370	57.708004
653.012587	58.529577
653.436782	59.296323
653.860953	59.999976
654.285102	60.648606
654.709226	61.227026
655.133328	61.719491
655.557406	62.144320
655.981461	62.486183
656.405493	62.753297
656.829501	62.938736
657.253486	63.022277
657.677448	63.022480
658.101386	62.952595
658.525301	62.800841
658.949192	62.568915
659.373060	62.274870
659.796904	61.917745
660.220725	61.493256
660.644522	61.030684
661.068296	60.518968
661.492046	59.971971
661.915772	59.400611
662.339475	58.809370
662.763154	58.194307
663.186810	57.579638
663.610442	56.953118
664.034050	56.334577
664.457635	55.733789
664.881196	55.131798
665.304733	54.552298
665.728247	53.993884
666.151736	53.467548
666.575202	52.968043
666.998644	52.491394
667.422062	52.049522
667.845457	51.650073
668.268827	51.290986
668.692174	50.974815
669.115496	50.711020
669.538795	50.488867
669.962070	50.320235
670.385321	50.218219
670.808547	50.163085
671.231750	50.154905
671.654929	50.192492
672.078084	50.280258
672.501214	50.410885
672.924321	50.576622
673.347404	50.784525
673.770462	51.012621
674.193496	51.272544
674.616506	51.553898
675.039492	51.844338
675.462454	52.147308
675.885391	52.445319
676.308305	52.745565
676.731194	53.049193
677.154058	53.341626
677.576899	53.610001
677.999715	53.871753
678.422507	54.105223
678.845274	54.323545
679.268017	54.526520
679.690736	54.691397
680.113430	54.838268
680.536100	54.953106
680.958746	55.044397
681.381367	55.108281
681.803963	55.143788
682.226535	55.145753
682.649083	55.125216
683.071605	55.076153
683.494104	55.003991
683.916578	54.920867
684.339027	54.813227
684.761451	54.698109
685.183851	54.576111
685.606227	54.438416
686.028577	54.302255
686.450903	54.165341
686.873204	54.033269
687.295481	53.908110
687.717733	53.787739
688.139959	53.686152
688.562162	53.602879
688.984339	53.556524
689.406492	53.525375
689.828619	53.513767
690.250722	53.528924
690.672800	53.587425
691.094853	53.671737
691.516881	53.806545
691.938884	53.973003
692.360863	54.170976
692.782816	54.422098
693.204744	54.712892
693.626647	55.044191
694.048526	55.407745
694.470379	55.819501
694.892207	56.270972
695.314010	56.762445
695.735788	57.289731
696.157540	57.848231
696.579268	58.427826
697.000970	59.021917
697.422648	59.647244
697.844300	60.268811
698.265926	60.903322
698.687528	61.545482
699.109104	62.180425
699.530655	62.805195
699.952181	63.429616
700.373681	64.031213
700.795156	64.618945
701.216606	65.181776
701.638030	65.721882
702.059429	66.220602
702.480803	66.698153
702.902151	67.143049
703.323473	67.558294
703.744770	67.933386
704.166042	68.279638
704.587288	68.564504
705.008509	68.816243
705.429704	69.011951
705.850873	69.157216
706.272017	69.256961
706.693135	69.303240
707.114228	69.308861
707.535295	69.275937
707.956336	69.195538
708.377352	69.079013
708.798342	68.903197
709.219306	68.708211
709.640245	68.497463
710.061157	68.259485
710.482044	67.990931
710.902905	67.721187
711.323741	67.428534
711.744550	67.132069
712.165334	66.831625
712.586092	66.540422
713.006823	66.233972
713.427529	65.943072
713.848209	65.654860
714.268863	65.380045
714.689492	65.115236
715.110094	64.872322
715.530670	64.639573
715.951220	64.427207
716.371744	64.229410
716.792242	64.058509
717.212714	63.887178
717.633159	63.753290
718.053579	63.632330
718.473973	63.537858
718.894340	63.457015
719.314681	63.395721
719.734996	63.355902
720.155285	63.333757
720.575547	63.317506
720.995784	63.317349
721.415994	63.332332
721.836177	63.378713
722.256335	63.427364
722.676466	63.473988
723.096570	63.546986
723.516649	63.631542
723.936701	63.725049
724.356726	63.826580
724.776725	63.941302
725.196698	64.074162
725.616644	64.205990
726.036564	64.354834
726.456457	64.514434
726.876324	64.682671
727.296164	64.839244
727.715977	65.004309
728.135764	65.173184
728.555525	65.329957
728.975258	65.491685
729.394966	65.643719
729.814646	65.788712
730.234300	65.927523
730.653927	66.056901
731.073527	66.168464
731.493101	66.285329
731.912648	66.387949
732.332168	66.478759
732.751661	66.575688
733.171128	66.658522
733.590568	66.732768
734.009980	66.796026
734.429366	66.844192
734.848726	66.886124
735.268058	66.911658
735.687363	66.938144
736.106641	66.944671
736.525893	66.947366
736.945117	66.945907
737.364314	66.949936
737.783485	66.950092
738.202628	66.932435
738.621744	66.908776
739.040834	66.891262
739.459896	66.857313
739.878931	66.836427
740.297939	66.831641
740.716919	66.824317
741.135873	66.812790
741.554799	66.823748
741.973698	66.834981
742.392570	66.868647
742.811415	66.907282
743.230232	66.972684
743.649022	67.059867
744.067785	67.176221
744.486521	67.306576
744.905229	67.456721
745.323909	67.635665
745.742563	67.821359
746.161189	68.036519
746.579787	68.269459
746.998358	68.517798
747.416902	68.776617
747.835418	69.051271
748.253907	69.340328
748.672368	69.634568
749.090802	69.936517
749.509208	70.234819
749.927586	70.534430
750.345937	70.820637
750.764261	71.097580
751.182556	71.381041
751.600824	71.653725
752.019065	71.908637
752.437277	72.163579
752.855462	72.397855
753.273620	72.617072
753.691749	72.817493
754.109851	73.012240
754.527925	73.173449
754.945971	73.320410
755.363989	73.453130
755.781980	73.550698
756.199943	73.645137
756.617877	73.694585
757.035784	73.706469
757.453663	73.697733
757.871514	73.681754
758.289337	73.627970
758.707132	73.549533
759.124899	73.438441
759.542639	73.312335
759.960350	73.174891
760.378033	73.028366
760.795688	72.849702
761.213314	72.677922
761.630913	72.489162
762.048484	72.298448
762.466026	72.104816
762.883541	71.902064
763.301027	71.714391
763.718485	71.541252
764.135914	71.363973
764.553316	71.205057
764.970689	71.056224
765.388034	70.908750
765.805351	70.774192
766.222639	70.643622
766.639899	70.525770
767.057131	70.430195
767.474334	70.359625
767.891509	70.302971
768.308655	70.250676
768.725773	70.229109
769.142863	70.213913
769.559924	70.214055
769.976957	70.233719
770.393961	70.257689
770.810936	70.285510
771.227883	70.334045
771.644802	70.387683
772.061692	70.455896
772.478553	70.510553
772.895386	70.559744
773.312190	70.611621
773.728965	70.681504
774.145712	70.743662
774.562430	70.800432
774.979119	70.856166
775.395780	70.910551
775.812411	70.969114
776.229014	71.014725
776.645589	71.047620
777.062134	71.076761
777.478651	71.099504
777.895138	71.118262
778.311597	71.138350
778.728027	71.154578
779.144428	71.179940
779.560800	71.185294
779.977143	71.183775
780.393458	71.174595
780.809743	71.160827
781.225999	71.135252
781.642226	71.113612
782.058425	71.078407
782.474594	71.050781
782.890734	71.017882
783.306845	70.984601
783.722926	70.944211
784.138979	70.894802
784.555003	70.842542
784.970997	70.783632
785.386962	70.743180
785.802898	70.693879
786.218805	70.656483
786.634682	70.599838
787.050531	70.530766
787.466349	70.482081
787.882139	70.424288
788.297899	70.356062
788.713630	70.289498
789.129332	70.216046
789.545004	70.123411
789.960647	70.036974
790.376260	69.933615
790.791844	69.823463
791.207399	69.705289
791.622924	69.571182
792.038419	69.408745
792.453885	69.270717
792.869321	69.108530
793.284728	68.948112
793.700106	68.774471
794.115453	68.594030
794.530771	68.386142
794.946060	68.185981
795.361319	67.966923
795.776548	67.740977
796.191747	67.511998
796.606917	67.288888
797.022057	67.059089
797.437167	66.825915
797.852248	66.610268
798.267298	66.373479
798.682319	66.159183
799.097310	65.937999
799.512271	65.730166
799.927203	65.548929
800.342104	65.364406
800.756976	65.205723
801.171818	65.074888
801.586629	64.953505
802.001411	64.843093
802.416163	64.773791
802.830885	64.738573
803.245577	64.732250
803.660238	64.751005
804.074870	64.802404
804.489472	64.875667
804.904043	64.989928
805.318585	65.124461
805.733096	65.288680
806.147577	65.463518
806.562028	65.658748
806.976449	65.878160
807.390840	66.121420
807.805200	66.374774
808.219530	66.660316
808.633830	66.946427
809.048100	67.246557
809.462339	67.553753
809.876548	67.881482
810.290727	68.223268
810.704875	68.541883
811.118993	68.889599
811.533080	69.237477
811.947137	69.577895
812.361164	69.924630
812.775160	70.251875
813.189126	70.575927
813.603061	70.885616
814.016966	71.183054
814.430840	71.478309
814.844684	71.773652
815.258497	72.044319
815.672280	72.290411
816.086032	72.522312
816.499753	72.748748
816.913444	72.955112
817.327104	73.144164
817.740733	73.319110
818.154331	73.487882
818.567899	73.644191
818.981436	73.779058
819.394943	73.918227
819.808418	74.068984
820.221863	74.201357
820.635277	74.332900
821.048660	74.435870
821.462013	74.559555
821.875334	74.650517
822.288625	74.743822
822.701884	74.799361
823.115113	74.843003
823.528311	74.892519
823.941478	74.896372
824.354614	74.909385
824.767718	74.904672
825.180792	74.880621
825.593835	74.839490
826.006847	74.787266
826.419827	74.713933
826.832777	74.629541
827.245695	74.524034
827.658582	74.406401
828.071438	74.268864
828.484263	74.126872
828.897057	73.952459
829.309819	73.761577
829.722551	73.546563
830.135251	73.322109
830.547919	73.071947
830.960557	72.797270
831.373163	72.485034
831.785738	72.164023
832.198281	71.809584
832.610793	71.414019
833.023274	71.022898
833.435723	70.585387
833.848141	70.160246
834.260528	69.724916
834.672883	69.296006
835.085206	68.861321
835.497498	68.444858
835.909758	68.059343
836.321987	67.662874
836.734185	67.303757
837.146350	66.939144
837.558485	66.603526
837.970587	66.300089
838.382658	66.009256
838.794697	65.765614
839.206705	65.547246
839.618681	65.337594
840.030625	65.150333
840.442538	65.002753
840.854418	64.886169
841.266267	64.782131
841.678084	64.719125
842.089870	64.674918
842.501623	64.634554
842.913345	64.639928
843.325035	64.669581
843.736693	64.715711
844.148319	64.807017
844.559913	64.948424
844.971475	65.105504
845.383005	65.289539
845.794504	65.486749
846.205970	65.718651
846.617404	65.961546
847.028806	66.215032
847.440176	66.479821
847.851514	66.769639
848.262820	67.070649
848.674094	67.354522
849.085336	67.657055
849.496546	67.969355
849.907723	68.241439
850.318868	68.536519
850.729981	68.787902
851.141062	69.062701
851.552110	69.287882
851.963127	69.512211
852.374111	69.734895
852.785062	69.961196
853.195982	70.148101
853.606869	70.336603
854.017723	70.513287
854.428546	70.676626
854.839336	70.850275
855.250093	71.044959
855.660818	71.225442
856.071511	71.403798
856.482171	71.586979
856.892799	71.764750
857.303394	71.899721
857.713956	72.051724
858.124486	72.223081
858.534984	72.405866
858.945449	72.560893
859.355881	72.694677
859.766280	72.854238
860.176647	73.005006
860.586982	73.134770
860.997283	73.243644
861.407552	73.326612
861.817789	73.394837
862.227992	73.450420
862.638163	73.552392
863.048301	73.590273
863.458406	73.631268
863.868478	73.664157
864.278518	73.697102
864.688524	73.693510
865.098498	73.684811
865.508439	73.637257
865.918347	73.550317
866.328222	73.436581
866.738064	73.294522
867.147873	73.137043
867.557649	72.921980
867.967392	72.683089
868.377102	72.390933
868.786779	72.063738
869.196423	71.717742
869.606034	71.333505
870.015612	70.951444
870.425156	70.518521
870.834668	70.064899
871.244146	69.606059
871.653591	69.124288
872.063003	68.647403
872.472382	68.136941
872.881728	67.614943
873.291040	67.100285
873.700319	66.575005
874.109564	66.080027
874.518777	65.592095
874.927956	65.104551
875.337102	64.608885
875.746214	64.136914
876.155293	63.685730
876.564338	63.219134
876.973350	62.762314
877.382329	62.320060
877.791274	61.902234
878.200186	61.498445
878.609064	61.136054
879.017909	60.793987
879.426720	60.464021
879.835497	60.153324
880.244241	59.864762
880.652952	59.629594
881.061629	59.391640
881.470272	59.191892
881.878881	58.981296
882.287457	58.812411
882.695999	58.634214
883.104507	58.468982
883.512982	58.310204
883.921423	58.141139
884.329830	58.001209
884.738203	57.855650
885.146543	57.710088
885.554849	57.595452
885.963120	57.436404
886.371358	57.303446
886.779563	57.154275
887.187733	56.987325
887.595869	56.794438
888.003971	56.597459
888.412040	56.414625
888.820074	56.207738
889.228074	56.011907
889.636041	55.821407
890.043973	55.638894
890.451871	55.434365
890.859736	55.230584
891.267566	55.021938
891.675362	54.806407
892.083124	54.593805
892.490851	54.394237
892.898545	54.174712
893.306204	53.937348
893.713829	53.732768
894.121420	53.519802
894.528977	53.316046
894.936499	53.112693
895.343987	52.933338
895.751441	52.757283
896.158860	52.580150
896.566246	52.401091
896.973596	52.209127
897.380913	52.049777
897.788195	51.869165
898.195442	51.685971
898.602655	51.536979
899.009834	51.376612
899.416978	51.206568
899.824088	51.053975
900.231163	50.943087
900.638204	50.810479
901.045210	50.673261
901.452181	50.550315
901.859118	50.393784
902.266021	50.254974
902.672888	50.101792
903.079721	49.958186
903.486520	49.794270
903.893283	49.614449
904.300012	49.438049
904.706707	49.252666
905.113366	49.051785
905.519991	48.862880
905.926581	48.664302
906.333136	48.429535
906.739656	48.185248
907.146142	47.931394
907.552592	47.655582
907.959008	47.373908
908.365389	47.084819
908.771735	46.783678
909.178046	46.508222
909.584322	46.254561
909.990563	45.965518
910.396769	45.712356
910.802940	45.455085
911.209076	45.203448
911.615177	44.969567
912.021243	44.749740
912.427274	44.538668
912.833270	44.318794
913.239231	44.114166
913.645156	43.906795
914.051046	43.714650
914.456902	43.554933
914.862721	43.392131
915.268506	43.267841
915.674256	43.132900
916.079970	43.001037
916.485649	42.906576
916.891292	42.802837
917.296901	42.727224
917.702474	42.633488
918.108011	42.548775
918.513514	42.464711
918.918980	42.387417
919.324412	42.340013
919.729808	42.290148
920.135169	42.248936
920.540494	42.181903
920.945783	42.122310
921.351037	42.058625
921.756256	42.007232
922.161439	41.913326
922.566586	41.846895
922.971698	41.747031
923.376775	41.648267
923.781815	41.545482
924.186820	41.385045
924.591790	41.237319
924.996723	41.075751
925.401621	40.903087
925.806484	40.701612
926.211310	40.497158
926.616101	40.282974
927.020856	40.064414
927.425575	39.809261
927.830259	39.533100
928.234906	39.258204
928.639518	39.009880
929.044094	38.726066
929.448634	38.440428
929.853138	38.130453
930.257606	37.847310
930.662038	37.558516
931.066434	37.238616
931.470795	36.938359
931.875119	36.620625
932.279407	36.330706
932.683659	36.040728
933.087875	35.778782
933.492055	35.509208
933.896199	35.268486
934.300307	34.985047
934.704379	34.748274
935.108414	34.501501
935.512414	34.305822
935.916377	34.087026
936.320304	33.880316
936.724195	33.703969
937.128049	33.526531
937.531867	33.365761
937.935649	33.197222
938.339395	33.047232
938.743104	32.920444
939.146777	32.786361
939.550414	32.653038
939.954014	32.561367
940.357578	32.453258
940.761105	32.360378
941.164596	32.243701
941.568050	32.142805
941.971468	32.071036
942.374850	31.995103
942.778195	31.895215
943.181503	31.820499
943.584775	31.759032
943.988010	31.687813
944.391209	31.620923
944.794371	31.560074
945.197496	31.445127
945.600585	31.353509
946.003637	31.278737
946.406653	31.143278
946.809632	31.015341
947.212574	30.911990
947.615479	30.789672
948.018347	30.624649
948.421179	30.490853
948.823974	30.338870
949.226732	30.234062
949.629453	30.095234
950.032138	29.967581
950.434785	29.836014
950.837396	29.760929
951.239969	29.653846
951.642506	29.545783
952.045006	29.446099
952.447469	29.334922
952.849895	29.230425
953.252283	29.140368
953.654635	29.048230
954.056950	28.964947
954.459227	28.871996
954.861468	28.805552
955.263671	28.714956
955.665838	28.652453
956.067967	28.586460
956.470059	28.527147
956.872114	28.459495
957.274131	28.336555
957.676112	28.289174
958.078055	28.226239
958.479961	28.142392
958.881829	28.100023
959.283661	28.080464
959.685455	28.014649
960.087211	27.957056
960.488931	27.912406
960.890613	27.865837
961.292257	27.762404
961.693864	27.672975
962.095434	27.603513
962.496966	27.480087
962.898461	27.417176
963.299918	27.312304
963.701338	27.167447
964.102720	27.024709
964.504065	26.882363
964.905372	26.735342
965.306641	26.581401
965.707873	26.423250
966.109068	26.280407
966.510224	26.158784
966.911343	26.002106
967.312425	25.839282
967.713468	25.714521
968.114474	25.525930
968.515442	25.348952
968.916373	25.180247
969.317265	25.021156
969.718120	24.843668
970.118937	24.706173
970.519716	24.561954
970.920458	24.406195
971.321161	24.292928
971.721827	24.117788
972.122454	24.003311
972.523044	23.880617
972.923596	23.783142
973.324110	23.666056
973.724585	23.621427
974.125023	23.520231
974.525423	23.429305
974.925785	23.382617
975.326108	23.283251
975.726394	23.154457
976.126642	23.129825
976.526851	23.132033
976.927022	23.114865
977.327155	23.104065
977.727250	23.033214
978.127307	22.984414
978.527325	22.966808
978.927306	22.894262
979.327248	22.873452
979.727151	22.793422
980.127017	22.770893
980.526844	22.750917
980.926633	22.717526
981.326383	22.687733
981.726095	22.647262
982.125769	22.684634
982.525404	22.631664
982.925001	22.547468
983.324560	22.534695
983.724079	22.444077
984.123561	22.431688
984.523004	22.371797
984.922408	22.308528
985.321774	22.250722
985.721102	22.183850
986.120390	22.115223
986.519641	22.092653
986.918852	22.061252
987.318025	22.017575
987.717159	21.966568
988.116255	21.977744
988.515312	21.905576
988.914330	21.868153
989.313310	21.813778
989.712250	21.721572
990.111152	21.792122
990.510015	21.794988
990.908840	21.741883
991.307625	21.738034
991.706372	21.696198
992.105080	21.757880
992.503749	21.757069
992.902379	21.713312
993.300970	21.764975
993.699522	21.774063
994.098035	21.765906
994.496510	21.678335
994.894945	21.686701
995.293341	21.783367
995.691698	21.862038
996.090016	21.974942
996.488296	22.035327
996.886535	22.220067
997.284736	22.381636
997.682898	22.453766
998.081021	22.518378
998.479104	22.637674
998.877148	22.733973
999.275153	22.777709
999.673119	22.893212
1000.071046	23.086273
1000.468933	23.235932
1000.866781	23.322658
1001.264590	23.473918
1001.662359	23.527741
1002.060089	23.728912
1002.457780	23.772219
1002.855431	23.975136
1003.253043	24.190541
1003.650615	24.435887
1004.048148	24.587276
1004.445642	24.714372
1004.843096	24.891516
1005.240511	25.153889
1005.637886	25.302329
1006.035221	25.657701
1006.432517	26.030238
1006.829774	26.396037
1007.226991	26.748627
1007.624168	26.938175
1008.021306	27.233115
1008.418404	27.447019
1008.815462	27.830417
1009.212481	28.082812
1009.609460	28.286352
1010.006399	28.605643
1010.403298	28.999065
1010.800158	29.472141
1011.196978	29.765939
1011.593758	30.263228
1011.990498	30.713262
1012.387199	30.957380
1012.783860	31.353656
1013.180480	32.031437
1013.577061	32.206956
1013.973602	32.999490
1014.370103	33.374943
1014.766564	33.793343
1015.162985	34.098720
1015.559366	34.330199
1015.955708	34.486126
1016.352009	34.975962
1016.748270	35.426131
1017.144491	35.741811
1017.540671	35.967692
1017.936812	36.437554
1018.332913	36.444805
1018.728973	36.445709
1019.124994	36.853903
1019.520974	37.202381
1019.916914	37.810642
1020.312814	37.889530
