Time1=100ms:Average1=5:Objective=10X:Aperture=1: (11/28/2018 10:18:11 AM)
11/28/2018 10:18:11 AM
Reflectance
10X
Ap#: 1
Avg1: 5.000000
Avg2: 0.000000
Int.Time1:100.000000

350.166136	72.440622
350.601937	72.209625
351.037728	72.196885
351.473509	72.097009
351.909281	71.915444
352.345042	72.055488
352.780794	72.116559
353.216536	72.402313
353.652267	72.449694
354.087989	72.610068
354.523701	72.643416
354.959403	72.495830
355.395095	72.824266
355.830777	72.876422
356.266449	73.108872
356.702110	72.547636
357.137762	72.724056
357.573404	72.790325
358.009035	72.662511
358.444656	72.748371
358.880268	72.251496
359.315869	72.368070
359.751459	72.557766
360.187040	72.233131
360.622610	72.227183
361.058170	72.182941
361.493720	72.132170
361.929260	72.046084
362.364789	72.020725
362.800308	71.802403
363.235816	72.119652
363.671314	72.263682
364.106802	72.153136
364.542279	72.056473
364.977746	72.241456
365.413203	72.085400
365.848649	72.405243
366.284084	72.402195
366.719509	72.354556
367.154924	72.477798
367.590328	72.262190
368.025721	72.252747
368.461104	72.448980
368.896477	72.132016
369.331838	71.824663
369.767189	71.786779
370.202530	72.338561
370.637859	72.307152
371.073178	72.479397
371.508486	72.405969
371.943784	71.964891
372.379071	72.128584
372.814347	71.815176
373.249612	72.060617
373.684866	72.477784
374.120110	72.601548
374.555343	72.833275
374.990565	72.941793
375.425776	72.828177
375.860976	73.253684
376.296165	73.241162
376.731343	72.834749
377.166511	72.602380
377.601667	72.873040
378.036812	72.792259
378.471946	72.689295
378.907070	73.142010
379.342182	72.646675
379.777283	72.660870
380.212373	72.731209
380.647452	72.474529
381.082520	72.653833
381.517576	72.473118
381.952622	72.559662
382.387656	72.586639
382.822679	72.831820
383.257691	72.976015
383.692692	72.988207
384.127681	72.858501
384.562659	73.217527
384.997626	72.967374
385.432581	73.218143
385.867525	73.007668
386.302458	73.456364
386.737379	73.270305
387.172289	73.359603
387.607188	73.412188
388.042075	73.545291
388.476951	73.680164
388.911815	73.710553
389.346668	73.551339
389.781509	73.629066
390.216338	73.715348
390.651157	73.673108
391.085963	73.690406
391.520758	74.233232
391.955541	74.331596
392.390313	74.097700
392.825073	74.048239
393.259821	74.097042
393.694558	74.084932
394.129283	74.121086
394.563996	73.937677
394.998698	74.033836
395.433388	73.913402
395.868066	74.080633
396.302732	74.090032
396.737386	73.749847
397.172029	73.093367
397.606659	72.768814
398.041278	72.066771
398.475885	72.135903
398.910480	71.898356
399.345063	71.625623
399.779634	70.874309
400.214194	69.561939
400.648741	68.326929
401.083276	66.967314
401.517799	64.983565
401.952310	62.989516
402.386809	60.853977
402.821296	58.602587
403.255771	56.217152
403.690234	53.536959
404.124684	51.201627
404.559123	48.552148
404.993549	45.636920
405.427963	42.930206
405.862365	40.490369
406.296754	38.259505
406.731131	36.072230
407.165496	33.936966
407.599849	31.907429
408.034190	29.986276
408.468518	28.232770
408.902833	26.700026
409.337137	25.181137
409.771428	23.746727
410.205706	22.490265
410.639973	21.374951
411.074226	20.405696
411.508467	19.459047
411.942696	18.556305
412.376912	17.703695
412.811116	16.956824
413.245307	16.292814
413.679486	15.741724
414.113652	15.157411
414.547805	14.650646
414.981946	14.240338
415.416074	13.843371
415.850190	13.460343
416.284293	13.091322
416.718383	12.737454
417.152460	12.480561
417.586525	12.172688
418.020577	11.890984
418.454616	11.656945
418.888643	11.440993
419.322656	11.252667
419.756657	11.087555
420.190645	10.888225
420.624620	10.709911
421.058582	10.564981
421.492531	10.417267
421.926468	10.265491
422.360391	10.095102
422.794301	9.967770
423.228199	9.868708
423.662083	9.778662
424.095955	9.700318
424.529813	9.596542
424.963658	9.524106
425.397491	9.433094
425.831310	9.387669
426.265116	9.325321
426.698909	9.277741
427.132689	9.216059
427.566455	9.161601
428.000209	9.110227
428.433949	9.049058
428.867676	9.008419
429.301389	8.957769
429.735090	8.923535
430.168777	8.906469
430.602451	8.869768
431.036111	8.814281
431.469759	8.784563
431.903392	8.734990
432.337013	8.694066
432.770620	8.625958
433.204213	8.575958
433.637794	8.547204
434.071360	8.516700
434.504914	8.494860
434.938453	8.467319
435.371979	8.437182
435.805492	8.429155
436.238991	8.417181
436.672477	8.405428
437.105949	8.393603
437.539407	8.382289
437.972852	8.373409
438.406283	8.363380
438.839700	8.363796
439.273104	8.366901
439.706494	8.349535
440.139871	8.341413
440.573233	8.347098
441.006582	8.351107
441.439917	8.357323
441.873238	8.361623
442.306546	8.354194
442.739839	8.373812
443.173119	8.372143
443.606385	8.376456
444.039636	8.381465
444.472874	8.393366
444.906099	8.400297
445.339309	8.434613
445.772505	8.455306
446.205687	8.483418
446.638855	8.500652
447.072009	8.521965
447.505149	8.549688
447.938275	8.576079
448.371387	8.613854
448.804485	8.651079
449.237569	8.677142
449.670638	8.714906
450.103694	8.737008
450.536735	8.753847
450.969762	8.784620
451.402774	8.821691
451.835773	8.843424
452.268757	8.870888
452.701727	8.889404
453.134683	8.924661
453.567624	8.963858
454.000551	9.011050
454.433464	9.046677
454.866362	9.084939
455.299246	9.135107
455.732116	9.177992
456.164971	9.219900
456.597811	9.266923
457.030638	9.306539
457.463449	9.356388
457.896246	9.414395
458.329029	9.456465
458.761797	9.505928
459.194551	9.555426
459.627290	9.617131
460.060014	9.686636
460.492724	9.749746
460.925419	9.803145
461.358099	9.859964
461.790765	9.915188
462.223416	9.968311
462.656052	10.022653
463.088674	10.065236
463.521281	10.115577
463.953873	10.163864
464.386450	10.216668
464.819012	10.273957
465.251560	10.331061
465.684093	10.397678
466.116611	10.464862
466.549114	10.525074
466.981602	10.580643
467.414075	10.639805
467.846533	10.703454
468.278977	10.767376
468.711405	10.824517
469.143818	10.872474
469.576216	10.930902
470.008600	10.994643
470.440968	11.057096
470.873321	11.119488
471.305659	11.185483
471.737982	11.269244
472.170289	11.344761
472.602582	11.428452
473.034859	11.500061
473.467122	11.568720
473.899369	11.637933
474.331600	11.703519
474.763817	11.771499
475.196018	11.833929
475.628204	11.904251
476.060375	11.968716
476.492530	12.036902
476.924670	12.111588
477.356795	12.195525
477.788904	12.266672
478.220998	12.347320
478.653076	12.440725
479.085139	12.521926
479.517186	12.606814
479.949219	12.708498
480.381235	12.810263
480.813236	12.898956
481.245221	12.989903
481.677191	13.078400
482.109146	13.167779
482.541084	13.268011
482.973008	13.354137
483.404915	13.434994
483.836807	13.510977
484.268683	13.599811
484.700544	13.685001
485.132388	13.761369
485.564217	13.834898
485.996031	13.914780
486.427828	13.993611
486.859610	14.074314
487.291376	14.157756
487.723126	14.243480
488.154860	14.328635
488.586579	14.420782
489.018281	14.509100
489.449968	14.597215
489.881639	14.694008
490.313293	14.791569
490.744932	14.891379
491.176555	14.997847
491.608162	15.096961
492.039753	15.196533
492.471328	15.313156
492.902886	15.423499
493.334429	15.538861
493.765956	15.650754
494.197466	15.778442
494.628960	15.906811
495.060439	16.030893
495.491901	16.150357
495.923347	16.275594
496.354776	16.399568
496.786190	16.524894
497.217587	16.662688
497.648968	16.778333
498.080332	16.893829
498.511681	17.011041
498.943013	17.134610
499.374328	17.258802
499.805628	17.377651
500.236911	17.508730
500.668177	17.647091
501.099427	17.788501
501.530661	17.925095
501.961878	18.070993
502.393079	18.208228
502.824264	18.354826
503.255431	18.489246
503.686583	18.611323
504.117717	18.727611
504.548835	18.842953
504.979937	18.948277
505.411022	19.044176
505.842090	19.127178
506.273142	19.200911
506.704177	19.259112
507.135195	19.313877
507.566197	19.363785
507.997182	19.396751
508.428150	19.436034
508.859102	19.468740
509.290036	19.493558
509.720954	19.522341
510.151855	19.544573
510.582739	19.552656
511.013607	19.569761
511.444457	19.578656
511.875291	19.577887
512.306107	19.580366
512.736907	19.574030
513.167690	19.573764
513.598456	19.550385
514.029205	19.520677
514.459936	19.483407
514.890651	19.450070
515.321349	19.406676
515.752030	19.379447
516.182693	19.342638
516.613340	19.313607
517.043969	19.309776
517.474582	19.298196
517.905177	19.305716
518.335755	19.318907
518.766315	19.353052
519.196859	19.403909
519.627385	19.480951
520.057894	19.572032
520.488386	19.685587
520.918860	19.818210
521.349318	19.989840
521.779757	20.179003
522.210180	20.414332
522.640585	20.673499
523.070973	20.953171
523.501343	21.272288
523.931696	21.631767
524.362031	22.013730
524.792349	22.441429
525.222650	22.910833
525.652933	23.405172
526.083198	23.951336
526.513446	24.539696
526.943677	25.179524
527.373890	25.852023
527.804085	26.575059
528.234262	27.352438
528.664422	28.176300
529.094565	29.036194
529.524689	29.961298
529.954796	30.928099
530.384885	31.929814
530.814957	32.986013
531.245011	34.071650
531.675047	35.201560
532.105065	36.372781
532.535065	37.577123
532.965048	38.833891
533.395013	40.123188
533.824959	41.429414
534.254888	42.761643
534.684799	44.144536
535.114693	45.542729
535.544568	46.927706
535.974425	48.315789
536.404264	49.707691
536.834086	51.104573
537.263889	52.479776
537.693674	53.843884
538.123441	55.203645
538.553190	56.537284
538.982921	57.873036
539.412634	59.173957
539.842329	60.449079
540.272006	61.712746
540.701664	62.955734
541.131304	64.180724
541.560926	65.361939
541.990530	66.518129
542.420116	67.641096
542.849683	68.706283
543.279232	69.734092
543.708763	70.718814
544.138275	71.656005
544.567769	72.578267
544.997245	73.452169
545.426702	74.285701
545.856141	75.096228
546.285562	75.872050
546.714964	76.606379
547.144347	77.331488
547.573713	78.050476
548.003059	78.718183
548.432387	79.378096
548.861697	80.017678
549.290988	80.640703
549.720260	81.260205
550.149514	81.849394
550.578750	82.430974
551.007966	82.995758
551.437164	83.528172
551.866344	84.058436
552.295504	84.555475
552.724646	85.024288
553.153769	85.483743
553.582874	85.908580
554.011960	86.318372
554.441027	86.682931
554.870075	87.032342
555.299104	87.358231
555.728115	87.664796
556.157106	87.948127
556.586079	88.212606
557.015033	88.460624
557.443968	88.688054
557.872884	88.886372
558.301781	89.092508
558.730659	89.265644
559.159518	89.426226
559.588358	89.559585
560.017180	89.707223
560.445982	89.843269
560.874765	89.969788
561.303528	90.100950
561.732273	90.218996
562.160999	90.342929
562.589705	90.475746
563.018393	90.589605
563.447061	90.716037
563.875710	90.822945
564.304340	90.945802
564.732950	91.078893
565.161542	91.205445
565.590114	91.345547
566.018666	91.504753
566.447200	91.664222
566.875714	91.837903
567.304208	92.012186
567.732684	92.194203
568.161140	92.362769
568.589576	92.545548
569.017993	92.714325
569.446391	92.880348
569.874769	93.063056
570.303128	93.215171
570.731467	93.376457
571.159787	93.519361
571.588087	93.644494
572.016368	93.776151
572.444629	93.890534
572.872870	93.989444
573.301092	94.079871
573.729294	94.160396
574.157476	94.223312
574.585639	94.255450
575.013782	94.296671
575.441906	94.328060
575.870009	94.325796
576.298093	94.327500
576.726157	94.316873
577.154202	94.310749
577.582226	94.297406
578.010231	94.276362
578.438216	94.263005
578.866181	94.231689
579.294126	94.207105
579.722051	94.189555
580.149957	94.166722
580.577842	94.145052
581.005707	94.126866
581.433553	94.120240
581.861378	94.091951
582.289184	94.076191
582.716969	94.076169
583.144734	94.069374
583.572479	94.096894
584.000205	94.098250
584.427910	94.115170
584.855594	94.129666
585.283259	94.151268
585.710904	94.165789
586.138528	94.192583
586.566132	94.212250
586.993716	94.221954
587.421280	94.223727
587.848823	94.243669
588.276346	94.241020
588.703849	94.213722
589.131332	94.196857
589.558794	94.166521
589.986236	94.107500
590.413657	94.045483
590.841058	93.954576
591.268438	93.857783
591.695799	93.746255
592.123138	93.640040
592.550458	93.489236
592.977756	93.329095
593.405034	93.142167
593.832292	92.952009
594.259529	92.753639
594.686746	92.542374
595.113942	92.325029
595.541117	92.094992
595.968272	91.854971
596.395406	91.584495
596.822519	91.309896
597.249612	91.039620
597.676684	90.769168
598.103735	90.489998
598.530766	90.207624
598.957775	89.935991
599.384764	89.663545
599.811733	89.395655
600.238680	89.132714
600.665606	88.856761
601.092512	88.607979
601.519397	88.332240
601.946261	88.089238
602.373104	87.850106
602.799926	87.605126
603.226727	87.364638
603.653507	87.122285
604.080266	86.892836
604.507004	86.659093
604.933721	86.409961
605.360417	86.158165
605.787092	85.917901
606.213746	85.672616
606.640379	85.433109
607.066991	85.192003
607.493581	84.965989
607.920150	84.717789
608.346699	84.461836
608.773226	84.199635
609.199731	83.928184
609.626216	83.663537
610.052679	83.376808
610.479121	83.086160
610.905542	82.758717
611.331941	82.425624
611.758319	82.079065
612.184676	81.702886
612.611011	81.293800
613.037325	80.863110
613.463617	80.420622
613.889888	79.952189
614.316138	79.423252
614.742366	78.894636
615.168573	78.329015
615.594758	77.724819
616.020921	77.103775
616.447063	76.462327
616.873184	75.796473
617.299283	75.105023
617.725360	74.380067
618.151416	73.649468
618.577450	72.891186
619.003462	72.126948
619.429453	71.343870
619.855422	70.548610
620.281369	69.736878
620.707295	68.909748
621.133199	68.100448
621.559081	67.295528
621.984941	66.488557
622.410779	65.693824
622.836596	64.895545
623.262391	64.107978
623.688163	63.333217
624.113914	62.576404
624.539644	61.847853
624.965351	61.129604
625.391036	60.434849
625.816699	59.767596
626.242340	59.122329
626.667960	58.487332
627.093557	57.878509
627.519132	57.296729
627.944685	56.736480
628.370216	56.194004
628.795725	55.675157
629.221212	55.166280
629.646677	54.680758
630.072119	54.222739
630.497540	53.777451
630.922938	53.367554
631.348314	52.968897
631.773668	52.600829
632.198999	52.245506
632.624308	51.924236
633.049595	51.621867
633.474860	51.343876
633.900102	51.081161
634.325322	50.849714
634.750520	50.631494
635.175695	50.443176
635.600848	50.270802
636.025978	50.121009
636.451086	49.982597
636.876171	49.866988
637.301234	49.768774
637.726275	49.671464
638.151293	49.594385
638.576288	49.534028
639.001261	49.490231
639.426211	49.462891
639.851139	49.462420
640.276044	49.491130
640.700927	49.547323
641.125787	49.642334
641.550624	49.760262
641.975438	49.913004
642.400230	50.118676
642.824999	50.364799
643.249745	50.654242
643.674469	50.993644
644.099169	51.373789
644.523847	51.806350
644.948502	52.279853
645.373135	52.808309
645.797744	53.357093
646.222330	53.950829
646.646894	54.570461
647.071435	55.216108
647.495953	55.862469
647.920447	56.529373
648.344919	57.187671
648.769368	57.844140
649.193794	58.492947
649.618197	59.145812
650.042576	59.778081
650.466933	60.400785
650.891267	61.002510
651.315577	61.564756
651.739864	62.116967
652.164129	62.640501
652.588370	63.126939
653.012587	63.570952
653.436782	63.964178
653.860953	64.329459
654.285102	64.637333
654.709226	64.900172
655.133328	65.112286
655.557406	65.258261
655.981461	65.355821
656.405493	65.399928
656.829501	65.379632
657.253486	65.294723
657.677448	65.158147
658.101386	64.974641
658.525301	64.728297
658.949192	64.447134
659.373060	64.124966
659.796904	63.765784
660.220725	63.372604
660.644522	62.954671
661.068296	62.512448
661.492046	62.065083
661.915772	61.604425
662.339475	61.143583
662.763154	60.682528
663.186810	60.224762
663.610442	59.768969
664.034050	59.331356
664.457635	58.914086
664.881196	58.501530
665.304733	58.100713
665.728247	57.735454
666.151736	57.396013
666.575202	57.081854
666.998644	56.776750
667.422062	56.506568
667.845457	56.268997
668.268827	56.062977
668.692174	55.896022
669.115496	55.760181
669.538795	55.651648
669.962070	55.594181
670.385321	55.578662
670.808547	55.588006
671.231750	55.634245
671.654929	55.719197
672.078084	55.830214
672.501214	55.962668
672.924321	56.122929
673.347404	56.317211
673.770462	56.533877
674.193496	56.769207
674.616506	57.009931
675.039492	57.263463
675.462454	57.509715
675.885391	57.749630
676.308305	57.994724
676.731194	58.240501
677.154058	58.472714
677.576899	58.691463
677.999715	58.910760
678.422507	59.119306
678.845274	59.299356
679.268017	59.472973
679.690736	59.630381
680.113430	59.781674
680.536100	59.906489
680.958746	60.032641
681.381367	60.138792
681.803963	60.233680
682.226535	60.306568
682.649083	60.369637
683.071605	60.416079
683.494104	60.440802
683.916578	60.464490
684.339027	60.468072
684.761451	60.469055
685.183851	60.465108
685.606227	60.449451
686.028577	60.436097
686.450903	60.422033
686.873204	60.406893
687.295481	60.390917
687.717733	60.393210
688.139959	60.401815
688.562162	60.441147
688.984339	60.494534
689.406492	60.566866
689.828619	60.657627
690.250722	60.769724
690.672800	60.916238
691.094853	61.081416
691.516881	61.284877
691.938884	61.509896
692.360863	61.758219
692.782816	62.046914
693.204744	62.350001
693.626647	62.690098
694.048526	63.031299
694.470379	63.407711
694.892207	63.790580
695.314010	64.207567
695.735788	64.638339
696.157540	65.081650
696.579268	65.544554
697.000970	66.013941
697.422648	66.487022
697.844300	66.955442
698.265926	67.413637
698.687528	67.882352
699.109104	68.347730
699.530655	68.794512
699.952181	69.238817
700.373681	69.678514
700.795156	70.091936
701.216606	70.486843
701.638030	70.866667
702.059429	71.227714
702.480803	71.568761
702.902151	71.881909
703.323473	72.175501
703.744770	72.436971
704.166042	72.666754
704.587288	72.849427
705.008509	73.015668
705.429704	73.144166
705.850873	73.236840
706.272017	73.304207
706.693135	73.339343
707.114228	73.348364
707.535295	73.324114
707.956336	73.282675
708.377352	73.201062
708.798342	73.082167
709.219306	72.955165
709.640245	72.812033
710.061157	72.651699
710.482044	72.486646
710.902905	72.307682
711.323741	72.145004
711.744550	71.980375
712.165334	71.813389
712.586092	71.667810
713.006823	71.525958
713.427529	71.398372
713.848209	71.286604
714.268863	71.186134
714.689492	71.091284
715.110094	71.016600
715.530670	70.938722
715.951220	70.882952
716.371744	70.834744
716.792242	70.809383
717.212714	70.785053
717.633159	70.775123
718.053579	70.776054
718.473973	70.786287
718.894340	70.800835
719.314681	70.822495
719.734996	70.844714
720.155285	70.893389
720.575547	70.952030
720.995784	71.012651
721.415994	71.099884
721.836177	71.213205
722.256335	71.327726
722.676466	71.453263
723.096570	71.598204
723.516649	71.759179
723.936701	71.949124
724.356726	72.122672
724.776725	72.306563
725.196698	72.500457
725.616644	72.694334
726.036564	72.875404
726.456457	73.055285
726.876324	73.239824
727.296164	73.424890
727.715977	73.603233
728.135764	73.764758
728.555525	73.928799
728.975258	74.080631
729.394966	74.232192
729.814646	74.377231
730.234300	74.525914
730.653927	74.672545
731.073527	74.804593
731.493101	74.940754
731.912648	75.063850
732.332168	75.199443
732.751661	75.328386
733.171128	75.439360
733.590568	75.541951
734.009980	75.650152
734.429366	75.733179
734.848726	75.808670
735.268058	75.860575
735.687363	75.909824
736.106641	75.939490
736.525893	75.952331
736.945117	75.945929
737.364314	75.937311
737.783485	75.917806
738.202628	75.877505
738.621744	75.830169
739.040834	75.785881
739.459896	75.733665
739.878931	75.681392
740.297939	75.622617
740.716919	75.573322
741.135873	75.532831
741.554799	75.510526
741.973698	75.491969
742.392570	75.479555
742.811415	75.468257
743.230232	75.463887
743.649022	75.484883
744.067785	75.521541
744.486521	75.563810
744.905229	75.620585
745.323909	75.684793
745.742563	75.767003
746.161189	75.861593
746.579787	75.968479
746.998358	76.074510
747.416902	76.186970
747.835418	76.309209
748.253907	76.447176
748.672368	76.584323
749.090802	76.730663
749.509208	76.883477
749.927586	77.038601
750.345937	77.202066
750.764261	77.369100
751.182556	77.545012
751.600824	77.717064
752.019065	77.889904
752.437277	78.054127
752.855462	78.225513
753.273620	78.392594
753.691749	78.557466
754.109851	78.717923
754.527925	78.858502
754.945971	79.008565
755.363989	79.149760
755.781980	79.277280
756.199943	79.408820
756.617877	79.506474
757.035784	79.590802
757.453663	79.661376
757.871514	79.727519
758.289337	79.780742
758.707132	79.815054
759.124899	79.836106
759.542639	79.846413
759.960350	79.856486
760.378033	79.869306
760.795688	79.851197
761.213314	79.834619
761.630913	79.816679
762.048484	79.794003
762.466026	79.771972
762.883541	79.740190
763.301027	79.717133
763.718485	79.695698
764.135914	79.671470
764.553316	79.645690
764.970689	79.633379
765.388034	79.617974
765.805351	79.584002
766.222639	79.568837
766.639899	79.537461
767.057131	79.525656
767.474334	79.517067
767.891509	79.492868
768.308655	79.480513
768.725773	79.470363
769.142863	79.462009
769.559924	79.451669
769.976957	79.447810
770.393961	79.448317
770.810936	79.448509
771.227883	79.442390
771.644802	79.438029
772.061692	79.440557
772.478553	79.430762
772.895386	79.409863
773.312190	79.393449
773.728965	79.390040
774.145712	79.379599
774.562430	79.358721
774.979119	79.344204
775.395780	79.304624
775.812411	79.274310
776.229014	79.231355
776.645589	79.174372
777.062134	79.118221
777.478651	79.046306
777.895138	78.968802
778.311597	78.893813
778.728027	78.822545
779.144428	78.738341
779.560800	78.655142
779.977143	78.550237
780.393458	78.442604
780.809743	78.339966
781.225999	78.222567
781.642226	78.109977
782.058425	77.993845
782.474594	77.876341
782.890734	77.760399
783.306845	77.643104
783.722926	77.533948
784.138979	77.422683
784.555003	77.317318
784.970997	77.215246
785.386962	77.137099
785.802898	77.057302
786.218805	76.978187
786.634682	76.918141
787.050531	76.857158
787.466349	76.810141
787.882139	76.747791
788.297899	76.707414
788.713630	76.664833
789.129332	76.613690
789.545004	76.561986
789.960647	76.495859
790.376260	76.438330
790.791844	76.364575
791.207399	76.283191
791.622924	76.181509
792.038419	76.078054
792.453885	75.967285
792.869321	75.857031
793.284728	75.746546
793.700106	75.627383
794.115453	75.505581
794.530771	75.371556
794.946060	75.232826
795.361319	75.104393
795.776548	74.968401
796.191747	74.834675
796.606917	74.702734
797.022057	74.565693
797.437167	74.415125
797.852248	74.268338
798.267298	74.114832
798.682319	73.983309
799.097310	73.845565
799.512271	73.686791
799.927203	73.559471
800.342104	73.432071
800.756976	73.310998
801.171818	73.204834
801.586629	73.108171
802.001411	73.042716
802.416163	72.985735
802.830885	72.985727
803.245577	72.994832
803.660238	73.032277
804.074870	73.095392
804.489472	73.205307
804.904043	73.341458
805.318585	73.501681
805.733096	73.667868
806.147577	73.850609
806.562028	74.047620
806.976449	74.256733
807.390840	74.474507
807.805200	74.696706
808.219530	74.935130
808.633830	75.149910
809.048100	75.372813
809.462339	75.580790
809.876548	75.795850
810.290727	76.021936
810.704875	76.223716
811.118993	76.419679
811.533080	76.594836
811.947137	76.778402
812.361164	76.973923
812.775160	77.123719
813.189126	77.300493
813.603061	77.462178
814.016966	77.623009
814.430840	77.768750
814.844684	77.899467
815.258497	78.054079
815.672280	78.162880
816.086032	78.269140
816.499753	78.362545
816.913444	78.459381
817.327104	78.520575
817.740733	78.562799
818.154331	78.594517
818.567899	78.621368
818.981436	78.629197
819.394943	78.623966
819.808418	78.626773
820.221863	78.618661
820.635277	78.612108
821.048660	78.572568
821.462013	78.570840
821.875334	78.544133
822.288625	78.540329
822.701884	78.528410
823.115113	78.508840
823.528311	78.515406
823.941478	78.507870
824.354614	78.510781
824.767718	78.508460
825.180792	78.493335
825.593835	78.502836
826.006847	78.436551
826.419827	78.395227
826.832777	78.322001
827.245695	78.239228
827.658582	78.140063
828.071438	77.981354
828.484263	77.816307
828.897057	77.630306
829.309819	77.441845
829.722551	77.217382
830.135251	76.972024
830.547919	76.720290
830.960557	76.468502
831.373163	76.191283
831.785738	75.910354
832.198281	75.629679
832.610793	75.317477
833.023274	75.034598
833.435723	74.717334
833.848141	74.445893
834.260528	74.139233
834.672883	73.862535
835.085206	73.580317
835.497498	73.298305
835.909758	73.045907
836.321987	72.775621
836.734185	72.527371
837.146350	72.292095
837.558485	72.053809
837.970587	71.828573
838.382658	71.611337
838.794697	71.445081
839.206705	71.276227
839.618681	71.131712
840.030625	71.013034
840.442538	70.918895
840.854418	70.867778
841.266267	70.852512
841.678084	70.872992
842.089870	70.895970
842.501623	70.930746
842.913345	71.027986
843.325035	71.132519
843.736693	71.253640
844.148319	71.399862
844.559913	71.590343
844.971475	71.770713
845.383005	71.963483
845.794504	72.142673
846.205970	72.350791
846.617404	72.547919
847.028806	72.761183
847.440176	72.968380
847.851514	73.149010
848.262820	73.372784
848.674094	73.575475
849.085336	73.784705
849.496546	73.996188
849.907723	74.187173
850.318868	74.402180
850.729981	74.591021
851.141062	74.785744
851.552110	74.959977
851.963127	75.123678
852.374111	75.305064
852.785062	75.458649
853.195982	75.612889
853.606869	75.760857
854.017723	75.888909
854.428546	75.976163
854.839336	76.071323
855.250093	76.189966
855.660818	76.265671
856.071511	76.334441
856.482171	76.401447
856.892799	76.454073
857.303394	76.450125
857.713956	76.476707
858.124486	76.550531
858.534984	76.607256
858.945449	76.655724
859.355881	76.698571
859.766280	76.749903
860.176647	76.802680
860.586982	76.871594
860.997283	76.889603
861.407552	76.917766
861.817789	76.948674
862.227992	76.949967
862.638163	76.976418
863.048301	76.957344
863.458406	76.939387
863.868478	76.888968
864.278518	76.828376
864.688524	76.755256
865.098498	76.637543
865.508439	76.519443
865.918347	76.360599
866.328222	76.166081
866.738064	75.954344
867.147873	75.748769
867.557649	75.493063
867.967392	75.199679
868.377102	74.894740
868.786779	74.579716
869.196423	74.248415
869.606034	73.907826
870.015612	73.567826
870.425156	73.205898
870.834668	72.790078
871.244146	72.386960
871.653591	71.957320
872.063003	71.518505
872.472382	71.078188
872.881728	70.632698
873.291040	70.174060
873.700319	69.693295
874.109564	69.214692
874.518777	68.717206
874.927956	68.248393
875.337102	67.755780
875.746214	67.279294
876.155293	66.834123
876.564338	66.405800
876.973350	65.982809
877.382329	65.568148
877.791274	65.180423
878.200186	64.821684
878.609064	64.471282
879.017909	64.160693
879.426720	63.847660
879.835497	63.564356
880.244241	63.328747
880.652952	63.131069
881.061629	62.920527
881.470272	62.721124
881.878881	62.520136
882.287457	62.357874
882.695999	62.196786
883.104507	62.035682
883.512982	61.908358
883.921423	61.786233
884.329830	61.682769
884.738203	61.567724
885.146543	61.453707
885.554849	61.339114
885.963120	61.208975
886.371358	61.130307
886.779563	61.033860
887.187733	60.942237
887.595869	60.815167
888.003971	60.702721
888.412040	60.590926
888.820074	60.479015
889.228074	60.358547
889.636041	60.239764
890.043973	60.130619
890.451871	59.999617
890.859736	59.855744
891.267566	59.706236
891.675362	59.550974
892.083124	59.393290
892.490851	59.229352
892.898545	59.036852
893.306204	58.838491
893.713829	58.657806
894.121420	58.499403
894.528977	58.335604
894.936499	58.153308
895.343987	57.978772
895.751441	57.828709
896.158860	57.649861
896.566246	57.476936
896.973596	57.286135
897.380913	57.132697
897.788195	56.978657
898.195442	56.814237
898.602655	56.688573
899.009834	56.524235
899.416978	56.363278
899.824088	56.202973
900.231163	56.094301
900.638204	55.952700
901.045210	55.817916
901.452181	55.657867
901.859118	55.499335
902.266021	55.370092
902.672888	55.218684
903.079721	55.068715
903.486520	54.899714
903.893283	54.753891
904.300012	54.604521
904.706707	54.447752
905.113366	54.274583
905.519991	54.126037
905.926581	53.958259
906.333136	53.775517
906.739656	53.550522
907.146142	53.317872
907.552592	53.112664
907.959008	52.909680
908.365389	52.667324
908.771735	52.431472
909.178046	52.194004
909.584322	51.978308
909.990563	51.741908
910.396769	51.513173
910.802940	51.268277
911.209076	51.018727
911.615177	50.791918
912.021243	50.563330
912.427274	50.356562
912.833270	50.122754
913.239231	49.916122
913.645156	49.678859
914.051046	49.466159
914.456902	49.296109
914.862721	49.086795
915.268506	48.901389
915.674256	48.738525
916.079970	48.578319
916.485649	48.419478
916.891292	48.254667
917.296901	48.128429
917.702474	47.974979
918.108011	47.821531
918.513514	47.662196
918.918980	47.503878
919.324412	47.381160
919.729808	47.257214
920.135169	47.132251
920.540494	46.972424
920.945783	46.833784
921.351037	46.702097
921.756256	46.551896
922.161439	46.373051
922.566586	46.223465
922.971698	46.065133
923.376775	45.875094
923.781815	45.710562
924.186820	45.503224
924.591790	45.320571
924.996723	45.114930
925.401621	44.920887
925.806484	44.699867
926.211310	44.484862
926.616101	44.249970
927.020856	43.987726
927.425575	43.721893
927.830259	43.467954
928.234906	43.171402
928.639518	42.895789
929.044094	42.623427
929.448634	42.354240
929.853138	42.041149
930.257606	41.759179
930.662038	41.459872
931.066434	41.155395
931.470795	40.891965
931.875119	40.597601
932.279407	40.329144
932.683659	40.056393
933.087875	39.790635
933.492055	39.530287
933.896199	39.272561
934.300307	38.992061
934.704379	38.766805
935.108414	38.508227
935.512414	38.245095
935.916377	38.058066
936.320304	37.856888
936.724195	37.667005
937.128049	37.484917
937.531867	37.297131
937.935649	37.111855
938.339395	36.954224
938.743104	36.799260
939.146777	36.681644
939.550414	36.556879
939.954014	36.447246
940.357578	36.327755
940.761105	36.267576
941.164596	36.168533
941.568050	36.081773
941.971468	35.991857
942.374850	35.938501
942.778195	35.860348
943.181503	35.819135
943.584775	35.807235
943.988010	35.736909
944.391209	35.700480
944.794371	35.657728
945.197496	35.573644
945.600585	35.526071
946.003637	35.470338
946.406653	35.374147
946.809632	35.352614
947.212574	35.303118
947.615479	35.248575
948.018347	35.196832
948.421179	35.127737
948.823974	35.056608
949.226732	35.006413
949.629453	34.899515
950.032138	34.808167
950.434785	34.704740
950.837396	34.619424
951.239969	34.516416
951.642506	34.404734
952.045006	34.279621
952.447469	34.155687
952.849895	34.026241
953.252283	33.878281
953.654635	33.759371
954.056950	33.595158
954.459227	33.441187
954.861468	33.283646
955.263671	33.149419
955.665838	33.030276
956.067967	32.851589
956.470059	32.725355
956.872114	32.536249
957.274131	32.393651
957.676112	32.243853
958.078055	32.094435
958.479961	31.908202
958.881829	31.785204
959.283661	31.633761
959.685455	31.483192
960.087211	31.300385
960.488931	31.157148
960.890613	31.016465
961.292257	30.838895
961.693864	30.670955
962.095434	30.503730
962.496966	30.363280
962.898461	30.229525
963.299918	30.089677
963.701338	29.952528
964.102720	29.788061
964.504065	29.621912
964.905372	29.460927
965.306641	29.297877
965.707873	29.153199
966.109068	28.973987
966.510224	28.852228
966.911343	28.724268
967.312425	28.625243
967.713468	28.505455
968.114474	28.329301
968.515442	28.168317
968.916373	27.987888
969.317265	27.885429
969.718120	27.706421
970.118937	27.592518
970.519716	27.460682
970.920458	27.409445
971.321161	27.306397
971.721827	27.158180
972.122454	27.006165
972.523044	26.962031
972.923596	26.903522
973.324110	26.830019
973.724585	26.742858
974.125023	26.642310
974.525423	26.605344
974.925785	26.543790
975.326108	26.468337
975.726394	26.370882
976.126642	26.269386
976.526851	26.229225
976.927022	26.165983
977.327155	26.127526
977.727250	26.040442
978.127307	25.975513
978.527325	25.955534
978.927306	25.913257
979.327248	25.853166
979.727151	25.724515
980.127017	25.672523
980.526844	25.577227
980.926633	25.571794
981.326383	25.583510
981.726095	25.564745
982.125769	25.559258
982.525404	25.501120
982.925001	25.454134
983.324560	25.391987
983.724079	25.299237
984.123561	25.292689
984.523004	25.354037
984.922408	25.291000
985.321774	25.227036
985.721102	25.088106
986.120390	25.042680
986.519641	24.996321
986.918852	24.919932
987.318025	24.878659
987.717159	24.808151
988.116255	24.810881
988.515312	24.849028
988.914330	24.842610
989.313310	24.840990
989.712250	24.798807
990.111152	24.849498
990.510015	24.839031
990.908840	24.837499
991.307625	24.867566
991.706372	24.890464
992.105080	24.954325
992.503749	24.953269
992.902379	25.088643
993.300970	25.169709
993.699522	25.155028
994.098035	25.106164
994.496510	25.182550
994.894945	25.263968
995.293341	25.376865
995.691698	25.375508
996.090016	25.488378
996.488296	25.546984
996.886535	25.595431
997.284736	25.749917
997.682898	25.744249
998.081021	25.828748
998.479104	25.870952
998.877148	25.984100
999.275153	26.096627
999.673119	26.123915
1000.071046	26.246509
1000.468933	26.218834
1000.866781	26.150798
1001.264590	26.315205
1001.662359	26.439590
1002.060089	26.655826
1002.457780	26.751536
1002.855431	26.873863
1003.253043	27.011994
1003.650615	27.166545
1004.048148	27.194127
1004.445642	27.360192
1004.843096	27.495131
1005.240511	27.640599
1005.637886	27.699429
1006.035221	28.027631
1006.432517	28.462090
1006.829774	28.656012
1007.226991	28.873239
1007.624168	29.039908
1008.021306	29.298643
1008.418404	29.540472
1008.815462	29.773919
1009.212481	30.089698
1009.609460	30.235371
1010.006399	30.588686
1010.403298	30.904436
1010.800158	31.347962
1011.196978	31.684304
1011.593758	32.069908
1011.990498	32.543270
1012.387199	33.062823
1012.783860	33.730437
1013.180480	34.503240
1013.577061	34.434955
1013.973602	35.002552
1014.370103	35.326194
1014.766564	35.693481
1015.162985	36.109689
1015.559366	36.418992
1015.955708	36.577427
1016.352009	37.122253
1016.748270	37.606760
1017.144491	37.957611
1017.540671	38.145384
1017.936812	38.616652
1018.332913	38.740724
1018.728973	38.956221
1019.124994	39.200949
1019.520974	39.569161
1019.916914	39.975606
1020.312814	40.329761
