Time1=100ms:Average1=5:Objective=10X:Aperture=1: (11/28/2018 10:40:44 AM)
11/28/2018 10:40:44 AM
Reflectance
10X
Ap#: 1
Avg1: 5.000000
Avg2: 0.000000
Int.Time1:100.000000

350.166136	74.316134
350.601937	74.502394
351.037728	74.657947
351.473509	74.436541
351.909281	74.555651
352.345042	74.751352
352.780794	74.541965
353.216536	74.662695
353.652267	74.715661
354.087989	74.960533
354.523701	75.270140
354.959403	74.997805
355.395095	75.152103
355.830777	75.196260
356.266449	75.503712
356.702110	75.855681
357.137762	76.077148
357.573404	76.062600
358.009035	76.090828
358.444656	76.184950
358.880268	76.127534
359.315869	76.372697
359.751459	76.438576
360.187040	76.410211
360.622610	76.763708
361.058170	76.908619
361.493720	76.540791
361.929260	76.395463
362.364789	76.692871
362.800308	76.377392
363.235816	76.469022
363.671314	76.679104
364.106802	76.505596
364.542279	76.744806
364.977746	77.194851
365.413203	77.010985
365.848649	76.965994
366.284084	77.013631
366.719509	77.100859
367.154924	77.193606
367.590328	76.907363
368.025721	76.967387
368.461104	77.382431
368.896477	77.144370
369.331838	77.167503
369.767189	77.108539
370.202530	76.824674
370.637859	76.506765
371.073178	76.424689
371.508486	76.341740
371.943784	76.014600
372.379071	75.838401
372.814347	75.817960
373.249612	76.223654
373.684866	76.711971
374.120110	76.706967
374.555343	76.696833
374.990565	76.857193
375.425776	76.796015
375.860976	76.550100
376.296165	76.592580
376.731343	76.731763
377.166511	76.286314
377.601667	76.745816
378.036812	76.558277
378.471946	76.031332
378.907070	76.343336
379.342182	76.184268
379.777283	76.234783
380.212373	76.108417
380.647452	75.807287
381.082520	75.764868
381.517576	75.337634
381.952622	75.540622
382.387656	75.974419
382.822679	75.719844
383.257691	75.582301
383.692692	75.797780
384.127681	76.203648
384.562659	76.242330
384.997626	76.290350
385.432581	76.475162
385.867525	76.281554
386.302458	76.509141
386.737379	76.046412
387.172289	75.766661
387.607188	75.683552
388.042075	75.833405
388.476951	75.961046
388.911815	76.085850
389.346668	76.279227
389.781509	76.442755
390.216338	76.360717
390.651157	76.584255
391.085963	76.641722
391.520758	76.761038
391.955541	76.963175
392.390313	76.867551
392.825073	76.888814
393.259821	77.189307
393.694558	77.058380
394.129283	77.135699
394.563996	77.253791
394.998698	77.342843
395.433388	76.959591
395.868066	76.526788
396.302732	76.412655
396.737386	76.301263
397.172029	76.008795
397.606659	75.486271
398.041278	74.956967
398.475885	74.448639
398.910480	73.884824
399.345063	73.538809
399.779634	72.599109
400.214194	71.563749
400.648741	70.377623
401.083276	69.012916
401.517799	66.973215
401.952310	64.724383
402.386809	62.219687
402.821296	59.599400
403.255771	56.972647
403.690234	54.294879
404.124684	51.359525
404.559123	48.519414
404.993549	45.493289
405.427963	42.760460
405.862365	40.213150
406.296754	37.882384
406.731131	35.251273
407.165496	33.024896
407.599849	30.797993
408.034190	28.689673
408.468518	26.835567
408.902833	25.243124
409.337137	23.742312
409.771428	22.327287
410.205706	21.051905
410.639973	19.769739
411.074226	18.700435
411.508467	17.727838
411.942696	16.858682
412.376912	16.019115
412.811116	15.225228
413.245307	14.589057
413.679486	14.004847
414.113652	13.437935
414.547805	12.907902
414.981946	12.459147
415.416074	12.043295
415.850190	11.644236
416.284293	11.271802
416.718383	10.895516
417.152460	10.603063
417.586525	10.304121
418.020577	10.027578
418.454616	9.817751
418.888643	9.610126
419.322656	9.379254
419.756657	9.170380
420.190645	9.013280
420.624620	8.809261
421.058582	8.674986
421.492531	8.531387
421.926468	8.386099
422.360391	8.227437
422.794301	8.115367
423.228199	8.015759
423.662083	7.894335
424.095955	7.820828
424.529813	7.734089
424.963658	7.657996
425.397491	7.564703
425.831310	7.510411
426.265116	7.456640
426.698909	7.376266
427.132689	7.304189
427.566455	7.257435
428.000209	7.188512
428.433949	7.124592
428.867676	7.086869
429.301389	7.046972
429.735090	7.016087
430.168777	6.983708
430.602451	6.935828
431.036111	6.885434
431.469759	6.837042
431.903392	6.792493
432.337013	6.743347
432.770620	6.705679
433.204213	6.674243
433.637794	6.635948
434.071360	6.628200
434.504914	6.600435
434.938453	6.576267
435.371979	6.546762
435.805492	6.529825
436.238991	6.499641
436.672477	6.483053
437.105949	6.485044
437.539407	6.473162
437.972852	6.458150
438.406283	6.429555
438.839700	6.408152
439.273104	6.399484
439.706494	6.381080
440.139871	6.375429
440.573233	6.361536
441.006582	6.356413
441.439917	6.365576
441.873238	6.363195
442.306546	6.343840
442.739839	6.346677
443.173119	6.334677
443.606385	6.333785
444.039636	6.324739
444.472874	6.327108
444.906099	6.316423
445.339309	6.327279
445.772505	6.335387
446.205687	6.344293
446.638855	6.345224
447.072009	6.347633
447.505149	6.339039
447.938275	6.339972
448.371387	6.355715
448.804485	6.374991
449.237569	6.383198
449.670638	6.388076
450.103694	6.383669
450.536735	6.376919
450.969762	6.377032
451.402774	6.387088
451.835773	6.397289
452.268757	6.411649
452.701727	6.401614
453.134683	6.412736
453.567624	6.414048
454.000551	6.431066
454.433464	6.434344
454.866362	6.430294
455.299246	6.433822
455.732116	6.445707
456.164971	6.459232
456.597811	6.471644
457.030638	6.486455
457.463449	6.510106
457.896246	6.542456
458.329029	6.576949
458.761797	6.590319
459.194551	6.614009
459.627290	6.640438
460.060014	6.667817
460.492724	6.697884
460.925419	6.730025
461.358099	6.760283
461.790765	6.782649
462.223416	6.805584
462.656052	6.836828
463.088674	6.876353
463.521281	6.917961
463.953873	6.954172
464.386450	6.996077
464.819012	7.045243
465.251560	7.084582
465.684093	7.126935
466.116611	7.184122
466.549114	7.226689
466.981602	7.267357
467.414075	7.307469
467.846533	7.356145
468.278977	7.404831
468.711405	7.451713
469.143818	7.503359
469.576216	7.540022
470.008600	7.593608
470.440968	7.649352
470.873321	7.696422
471.305659	7.741184
471.737982	7.784359
472.170289	7.828968
472.602582	7.871174
473.034859	7.908078
473.467122	7.949207
473.899369	7.993874
474.331600	8.037885
474.763817	8.075614
475.196018	8.122359
475.628204	8.173492
476.060375	8.230374
476.492530	8.282348
476.924670	8.335564
477.356795	8.403328
477.788904	8.467227
478.220998	8.526325
478.653076	8.596844
479.085139	8.672138
479.517186	8.742855
479.949219	8.812947
480.381235	8.883626
480.813236	8.945794
481.245221	9.006104
481.677191	9.075156
482.109146	9.148642
482.541084	9.216560
482.973008	9.295449
483.404915	9.367734
483.836807	9.440683
484.268683	9.527289
484.700544	9.613932
485.132388	9.700886
485.564217	9.788104
485.996031	9.873459
486.427828	9.966091
486.859610	10.051371
487.291376	10.126484
487.723126	10.214361
488.154860	10.303798
488.586579	10.381516
489.018281	10.462575
489.449968	10.538359
489.881639	10.612574
490.313293	10.691145
490.744932	10.770255
491.176555	10.850749
491.608162	10.931812
492.039753	11.005702
492.471328	11.084768
492.902886	11.155156
493.334429	11.231181
493.765956	11.306109
494.197466	11.383730
494.628960	11.463895
495.060439	11.537554
495.491901	11.613732
495.923347	11.691561
496.354776	11.767605
496.786190	11.850430
497.217587	11.938364
497.648968	12.025251
498.080332	12.113149
498.511681	12.208005
498.943013	12.314616
499.374328	12.434182
499.805628	12.551426
500.236911	12.674812
500.668177	12.811548
501.099427	12.942583
501.530661	13.069907
501.961878	13.208399
502.393079	13.350490
502.824264	13.498045
503.255431	13.650945
503.686583	13.806461
504.117717	13.966195
504.548835	14.127135
504.979937	14.306246
505.411022	14.496821
505.842090	14.690526
506.273142	14.900175
506.704177	15.124088
507.135195	15.366138
507.566197	15.630250
507.997182	15.914534
508.428150	16.214121
508.859102	16.537860
509.290036	16.881466
509.720954	17.248776
510.151855	17.635765
510.582739	18.036333
511.013607	18.460961
511.444457	18.909597
511.875291	19.375492
512.306107	19.860084
512.736907	20.374162
513.167690	20.913166
513.598456	21.482395
514.029205	22.081797
514.459936	22.704562
514.890651	23.365759
515.321349	24.055649
515.752030	24.782717
516.182693	25.524058
516.613340	26.304209
517.043969	27.103391
517.474582	27.940389
517.905177	28.805601
518.335755	29.676287
518.766315	30.568344
519.196859	31.475741
519.627385	32.414577
520.057894	33.337446
520.488386	34.273017
520.918860	35.221025
521.349318	36.170101
521.779757	37.140370
522.210180	38.117783
522.640585	39.103622
523.070973	40.087581
523.501343	41.078988
523.931696	42.083148
524.362031	43.088285
524.792349	44.097286
525.222650	45.101913
525.652933	46.091566
526.083198	47.074842
526.513446	48.048691
526.943677	49.011742
527.373890	49.947722
527.804085	50.883302
528.234262	51.811884
528.664422	52.725081
529.094565	53.596110
529.524689	54.474109
529.954796	55.330708
530.384885	56.171031
530.814957	56.986662
531.245011	57.784575
531.675047	58.566940
532.105065	59.324608
532.535065	60.072723
532.965048	60.787593
533.395013	61.504258
533.824959	62.186636
534.254888	62.853921
534.684799	63.519967
535.114693	64.167844
535.544568	64.782855
535.974425	65.389524
536.404264	65.984010
536.834086	66.568371
537.263889	67.111763
537.693674	67.649902
538.123441	68.152665
538.553190	68.659327
538.982921	69.149673
539.412634	69.602234
539.842329	70.063800
540.272006	70.514041
540.701664	70.937596
541.131304	71.353515
541.560926	71.741057
541.990530	72.130016
542.420116	72.532760
542.849683	72.895605
543.279232	73.244533
543.708763	73.594861
544.138275	73.928954
544.567769	74.255376
544.997245	74.558987
545.426702	74.859411
545.856141	75.139287
546.285562	75.422330
546.714964	75.687339
547.144347	75.963016
547.573713	76.236273
548.003059	76.512727
548.432387	76.796618
548.861697	77.068085
549.290988	77.329533
549.720260	77.579771
550.149514	77.818466
550.578750	78.074401
551.007966	78.305538
551.437164	78.539174
551.866344	78.758827
552.295504	78.978148
552.724646	79.195623
553.153769	79.409968
553.582874	79.603863
554.011960	79.815997
554.441027	80.006899
554.870075	80.203525
555.299104	80.388699
555.728115	80.564794
556.157106	80.754185
556.586079	80.925030
557.015033	81.084674
557.443968	81.238663
557.872884	81.397468
558.301781	81.570443
558.730659	81.725784
559.159518	81.889323
559.588358	82.034117
560.017180	82.189087
560.445982	82.339206
560.874765	82.470260
561.303528	82.589863
561.732273	82.699456
562.160999	82.810873
562.589705	82.913931
563.018393	83.007355
563.447061	83.101469
563.875710	83.167200
564.304340	83.250582
564.732950	83.340658
565.161542	83.411183
565.590114	83.494970
566.018666	83.579259
566.447200	83.643260
566.875714	83.725489
567.304208	83.812086
567.732684	83.873703
568.161140	83.939391
568.589576	84.008443
569.017993	84.067949
569.446391	84.106078
569.874769	84.178982
570.303128	84.224030
570.731467	84.268751
571.159787	84.284731
571.588087	84.293010
572.016368	84.308817
572.444629	84.319205
572.872870	84.326906
573.301092	84.325104
573.729294	84.303376
574.157476	84.292181
574.585639	84.270358
575.013782	84.249336
575.441906	84.216842
575.870009	84.180350
576.298093	84.153060
576.726157	84.103075
577.154202	84.087699
577.582226	84.055158
578.010231	84.016854
578.438216	83.981715
578.866181	83.931685
579.294126	83.882408
579.722051	83.835113
580.149957	83.769706
580.577842	83.679999
581.005707	83.614165
581.433553	83.534667
581.861378	83.425572
582.289184	83.317408
582.716969	83.210303
583.144734	83.085404
583.572479	82.968169
584.000205	82.840197
584.427910	82.722615
584.855594	82.593474
585.283259	82.455231
585.710904	82.306635
586.138528	82.149783
586.566132	81.990049
586.993716	81.841567
587.421280	81.669986
587.848823	81.493715
588.276346	81.316468
588.703849	81.131539
589.131332	80.941766
589.558794	80.734833
589.986236	80.543877
590.413657	80.311734
590.841058	80.059865
591.268438	79.802005
591.695799	79.547823
592.123138	79.287935
592.550458	79.002765
592.977756	78.702909
593.405034	78.395119
593.832292	78.085642
594.259529	77.755073
594.686746	77.414693
595.113942	77.078258
595.541117	76.730002
595.968272	76.369256
596.395406	75.979704
596.822519	75.589917
597.249612	75.173481
597.676684	74.743080
598.103735	74.287902
598.530766	73.831842
598.957775	73.346850
599.384764	72.850343
599.811733	72.329280
600.238680	71.780250
600.665606	71.215182
601.092512	70.637922
601.519397	70.005268
601.946261	69.373222
602.373104	68.715313
602.799926	68.037397
603.226727	67.318925
603.653507	66.591748
604.080266	65.856239
604.507004	65.097683
604.933721	64.310752
605.360417	63.513940
605.787092	62.711717
606.213746	61.914800
606.640379	61.101547
607.066991	60.295261
607.493581	59.502963
607.920150	58.708974
608.346699	57.916583
608.773226	57.125986
609.199731	56.353063
609.626216	55.600698
610.052679	54.849565
610.479121	54.140020
610.905542	53.430915
611.331941	52.751636
611.758319	52.075498
612.184676	51.426904
612.611011	50.797434
613.037325	50.193902
613.463617	49.621123
613.889888	49.062801
614.316138	48.528235
614.742366	48.042592
615.168573	47.567372
615.594758	47.128180
616.020921	46.725410
616.447063	46.359712
616.873184	46.039302
617.299283	45.743523
617.725360	45.497918
618.151416	45.289898
618.577450	45.114536
619.003462	44.989010
619.429453	44.894183
619.855422	44.853599
620.281369	44.839638
620.707295	44.869744
621.133199	44.949079
621.559081	45.068542
621.984941	45.230339
622.410779	45.425239
622.836596	45.661901
623.262391	45.937040
623.688163	46.232021
624.113914	46.567334
624.539644	46.925445
624.965351	47.315988
625.391036	47.735023
625.816699	48.164004
626.242340	48.617236
626.667960	49.086501
627.093557	49.571897
627.519132	50.066515
627.944685	50.552374
628.370216	51.055111
628.795725	51.552647
629.221212	52.036847
629.646677	52.513975
630.072119	52.964863
630.497540	53.423238
630.922938	53.843597
631.348314	54.247019
631.773668	54.624587
632.198999	54.967186
632.624308	55.291587
633.049595	55.574451
633.474860	55.824312
633.900102	56.039532
634.325322	56.213880
634.750520	56.361857
635.175695	56.480717
635.600848	56.569629
636.025978	56.630342
636.451086	56.661935
636.876171	56.668434
637.301234	56.657419
637.726275	56.621218
638.151293	56.555903
638.576288	56.480726
639.001261	56.394554
639.426211	56.290779
639.851139	56.167268
640.276044	56.053295
640.700927	55.920675
641.125787	55.800377
641.550624	55.669731
641.975438	55.538477
642.400230	55.418845
642.824999	55.307752
643.249745	55.203960
643.674469	55.099049
644.099169	55.006693
644.523847	54.922572
644.948502	54.848521
645.373135	54.793756
645.797744	54.746564
646.222330	54.717714
646.646894	54.714269
647.071435	54.726150
647.495953	54.750338
647.920447	54.792738
648.344919	54.851748
648.769368	54.923884
649.193794	55.005819
649.618197	55.106749
650.042576	55.219960
650.466933	55.345343
650.891267	55.474491
651.315577	55.616142
651.739864	55.757610
652.164129	55.901700
652.588370	56.058177
653.012587	56.203940
653.436782	56.332513
653.860953	56.480913
654.285102	56.609952
654.709226	56.725551
655.133328	56.844820
655.557406	56.948407
655.981461	57.038728
656.405493	57.126404
656.829501	57.197892
657.253486	57.253913
657.677448	57.287865
658.101386	57.326206
658.525301	57.341361
658.949192	57.334541
659.373060	57.318467
659.796904	57.282941
660.220725	57.229509
660.644522	57.161329
661.068296	57.076618
661.492046	56.968561
661.915772	56.851581
662.339475	56.717347
662.763154	56.578708
663.186810	56.427835
663.610442	56.262737
664.034050	56.099488
664.457635	55.935300
664.881196	55.765887
665.304733	55.598403
665.728247	55.434867
666.151736	55.280151
666.575202	55.138318
666.998644	54.986044
667.422062	54.854571
667.845457	54.736243
668.268827	54.626521
668.692174	54.526676
669.115496	54.444569
669.538795	54.364517
669.962070	54.309660
670.385321	54.281432
670.808547	54.274827
671.231750	54.282239
671.654929	54.312207
672.078084	54.364273
672.501214	54.435608
672.924321	54.530997
673.347404	54.660566
673.770462	54.809336
674.193496	54.988490
674.616506	55.180784
675.039492	55.392889
675.462454	55.622816
675.885391	55.855521
676.308305	56.102049
676.731194	56.372871
677.154058	56.654283
677.576899	56.936752
677.999715	57.220373
678.422507	57.508196
678.845274	57.790931
679.268017	58.093172
679.690736	58.373974
680.113430	58.663919
680.536100	58.944745
680.958746	59.230987
681.381367	59.506407
681.803963	59.783463
682.226535	60.045371
682.649083	60.311594
683.071605	60.565622
683.494104	60.799104
683.916578	61.041452
684.339027	61.265006
684.761451	61.487745
685.183851	61.698398
685.606227	61.899207
686.028577	62.088471
686.450903	62.264959
686.873204	62.431120
687.295481	62.580990
687.717733	62.733477
688.139959	62.884344
688.562162	63.027905
688.984339	63.166368
689.406492	63.308348
689.828619	63.434643
690.250722	63.551621
690.672800	63.680098
691.094853	63.802817
691.516881	63.944794
691.938884	64.070817
692.360863	64.186136
692.782816	64.317681
693.204744	64.442247
693.626647	64.559393
694.048526	64.671545
694.470379	64.786313
694.892207	64.905069
695.314010	65.028570
695.735788	65.149839
696.157540	65.282806
696.579268	65.419917
697.000970	65.551845
697.422648	65.697551
697.844300	65.833324
698.265926	65.982618
698.687528	66.144695
699.109104	66.319171
699.530655	66.487922
699.952181	66.680235
700.373681	66.876780
700.795156	67.076362
701.216606	67.270186
701.638030	67.476354
702.059429	67.698767
702.480803	67.910381
702.902151	68.126857
703.323473	68.347121
703.744770	68.554838
704.166042	68.774231
704.587288	68.960128
705.008509	69.157184
705.429704	69.352515
705.850873	69.537034
706.272017	69.717763
706.693135	69.897364
707.114228	70.067447
707.535295	70.241922
707.956336	70.395261
708.377352	70.531765
708.798342	70.657132
709.219306	70.770229
709.640245	70.887067
710.061157	70.986770
710.482044	71.067231
710.902905	71.139604
711.323741	71.202692
711.744550	71.246105
712.165334	71.272789
712.586092	71.303813
713.006823	71.311397
713.427529	71.309196
713.848209	71.312168
714.268863	71.304975
714.689492	71.289757
715.110094	71.256586
715.530670	71.226210
715.951220	71.197436
716.371744	71.163950
716.792242	71.139234
717.212714	71.095721
717.633159	71.069285
718.053579	71.044547
718.473973	71.016149
718.894340	70.988056
719.314681	70.968974
719.734996	70.950801
720.155285	70.948412
720.575547	70.929956
720.995784	70.928483
721.415994	70.943095
721.836177	70.972039
722.256335	70.987245
722.676466	71.014252
723.096570	71.055900
723.516649	71.110086
723.936701	71.183777
724.356726	71.256342
724.776725	71.345959
725.196698	71.450523
725.616644	71.556650
726.036564	71.669290
726.456457	71.791784
726.876324	71.922607
727.296164	72.064856
727.715977	72.205183
728.135764	72.354649
728.555525	72.509474
728.975258	72.660833
729.394966	72.814637
729.814646	72.959570
730.234300	73.112840
730.653927	73.258851
731.073527	73.388062
731.493101	73.530155
731.912648	73.668761
732.332168	73.792892
732.751661	73.912941
733.171128	74.030481
733.590568	74.144966
734.009980	74.257916
734.429366	74.352796
734.848726	74.442967
735.268058	74.535034
735.687363	74.607000
736.106641	74.674960
736.525893	74.732440
736.945117	74.772174
737.364314	74.814334
737.783485	74.844790
738.202628	74.863196
738.621744	74.873207
739.040834	74.875487
739.459896	74.870033
739.878931	74.845552
740.297939	74.812838
740.716919	74.791232
741.135873	74.760136
741.554799	74.729102
741.973698	74.694369
742.392570	74.647662
742.811415	74.605523
743.230232	74.569752
743.649022	74.538776
744.067785	74.522838
744.486521	74.500098
744.905229	74.482374
745.323909	74.478168
745.742563	74.495729
746.161189	74.503764
746.579787	74.534056
746.998358	74.558515
747.416902	74.599627
747.835418	74.651970
748.253907	74.715643
748.672368	74.793924
749.090802	74.886146
749.509208	74.976295
749.927586	75.086704
750.345937	75.195901
750.764261	75.314300
751.182556	75.440284
751.600824	75.578498
752.019065	75.724207
752.437277	75.876549
752.855462	76.035548
753.273620	76.198561
753.691749	76.349183
754.109851	76.508320
754.527925	76.660655
754.945971	76.820211
755.363989	76.997921
755.781980	77.155413
756.199943	77.320461
756.617877	77.472719
757.035784	77.618174
757.453663	77.753730
757.871514	77.893196
758.289337	78.016799
758.707132	78.124468
759.124899	78.217745
759.542639	78.299213
759.960350	78.384633
760.378033	78.465798
760.795688	78.515967
761.213314	78.565348
761.630913	78.606022
762.048484	78.621795
762.466026	78.642043
762.883541	78.637656
763.301027	78.635384
763.718485	78.639228
764.135914	78.625374
764.553316	78.599401
764.970689	78.573735
765.388034	78.535695
765.805351	78.490236
766.222639	78.440674
766.639899	78.399686
767.057131	78.356977
767.474334	78.322712
767.891509	78.281603
768.308655	78.239005
768.725773	78.212731
769.142863	78.180939
769.559924	78.163967
769.976957	78.143494
770.393961	78.125844
770.810936	78.116622
771.227883	78.110065
771.644802	78.105728
772.061692	78.128362
772.478553	78.135439
772.895386	78.133226
773.312190	78.142916
773.728965	78.178463
774.145712	78.207024
774.562430	78.230954
774.979119	78.274508
775.395780	78.316793
775.812411	78.369475
776.229014	78.424410
776.645589	78.464984
777.062134	78.517407
777.478651	78.560776
777.895138	78.613631
778.311597	78.657238
778.728027	78.712235
779.144428	78.773312
779.560800	78.817428
779.977143	78.864156
780.393458	78.898941
780.809743	78.927808
781.225999	78.944449
781.642226	78.968320
782.058425	78.982510
782.474594	78.990336
782.890734	78.995775
783.306845	78.999670
783.722926	78.986788
784.138979	78.967309
784.555003	78.949070
784.970997	78.917303
785.386962	78.900785
785.802898	78.884883
786.218805	78.858422
786.634682	78.816724
787.050531	78.779384
787.466349	78.751002
787.882139	78.704162
788.297899	78.661517
788.713630	78.617503
789.129332	78.568693
789.545004	78.525804
789.960647	78.488175
790.376260	78.454949
790.791844	78.407359
791.207399	78.373263
791.622924	78.324172
792.038419	78.266923
792.453885	78.235140
792.869321	78.196325
793.284728	78.168861
793.700106	78.150346
794.115453	78.133152
794.530771	78.103434
794.946060	78.086512
795.361319	78.066364
795.776548	78.059256
796.191747	78.040972
796.606917	78.034066
797.022057	78.031862
797.437167	78.020960
797.852248	78.016830
798.267298	78.013560
798.682319	78.030913
799.097310	78.038721
799.512271	78.036419
799.927203	78.047059
800.342104	78.060551
800.756976	78.070070
801.171818	78.085121
801.586629	78.104781
802.001411	78.118141
802.416163	78.115079
802.830885	78.113624
803.245577	78.116400
803.660238	78.110238
804.074870	78.111184
804.489472	78.117883
804.904043	78.129150
805.318585	78.116729
805.733096	78.110464
806.147577	78.088262
806.562028	78.065940
806.976449	78.043241
807.390840	78.032025
807.805200	78.014175
808.219530	78.019064
808.633830	78.003463
809.048100	78.018225
809.462339	78.049788
809.876548	78.081574
810.290727	78.138691
810.704875	78.184065
811.118993	78.236410
811.533080	78.278848
811.947137	78.334783
812.361164	78.424801
812.775160	78.490440
813.189126	78.559248
813.603061	78.643634
814.016966	78.724626
814.430840	78.786564
814.844684	78.851473
815.258497	78.948828
815.672280	79.035156
816.086032	79.117390
816.499753	79.213041
816.913444	79.309247
817.327104	79.403497
817.740733	79.498308
818.154331	79.603447
818.567899	79.699695
818.981436	79.796491
819.394943	79.889503
819.808418	80.004126
820.221863	80.102877
820.635277	80.204388
821.048660	80.278855
821.462013	80.373047
821.875334	80.445436
822.288625	80.496781
822.701884	80.555245
823.115113	80.578912
823.528311	80.624935
823.941478	80.646424
824.354614	80.668299
824.767718	80.680957
825.180792	80.670556
825.593835	80.672234
826.006847	80.657328
826.419827	80.637842
826.832777	80.613550
827.245695	80.612928
827.658582	80.623055
828.071438	80.605499
828.484263	80.589608
828.897057	80.584975
829.309819	80.587996
829.722551	80.604780
830.135251	80.611559
830.547919	80.630344
830.960557	80.650182
831.373163	80.678764
831.785738	80.697377
832.198281	80.751723
832.610793	80.786725
833.023274	80.837082
833.435723	80.858268
833.848141	80.898409
834.260528	80.947235
834.672883	80.988699
835.085206	81.026572
835.497498	81.054744
835.909758	81.126717
836.321987	81.149498
836.734185	81.198693
837.146350	81.240170
837.558485	81.301825
837.970587	81.336462
838.382658	81.377154
838.794697	81.423172
839.206705	81.464049
839.618681	81.487224
840.030625	81.517587
840.442538	81.534936
840.854418	81.550764
841.266267	81.577444
841.678084	81.597126
842.089870	81.601121
842.501623	81.563135
842.913345	81.547349
843.325035	81.509934
843.736693	81.478546
844.148319	81.438084
844.559913	81.424953
844.971475	81.364112
845.383005	81.298294
845.794504	81.218793
846.205970	81.178242
846.617404	81.114749
847.028806	81.039747
847.440176	80.962417
847.851514	80.896000
848.262820	80.856661
848.674094	80.781937
849.085336	80.741076
849.496546	80.692493
849.907723	80.631528
850.318868	80.568364
850.729981	80.505088
851.141062	80.459942
851.552110	80.400526
851.963127	80.325991
852.374111	80.291359
852.785062	80.210605
853.195982	80.138521
853.606869	80.069781
854.017723	80.001104
854.428546	79.925935
854.839336	79.853988
855.250093	79.812235
855.660818	79.763676
856.071511	79.705783
856.482171	79.636495
856.892799	79.559629
857.303394	79.436915
857.713956	79.342562
858.124486	79.264103
858.534984	79.172632
858.945449	79.058924
859.355881	78.931533
859.766280	78.825176
860.176647	78.718970
860.586982	78.589660
860.997283	78.417821
861.407552	78.245082
861.817789	78.058341
862.227992	77.865219
862.638163	77.708453
863.048301	77.515205
863.458406	77.325901
863.868478	77.111990
864.278518	76.902823
864.688524	76.700349
865.098498	76.478382
865.508439	76.286590
865.918347	76.076164
866.328222	75.843064
866.738064	75.620994
867.147873	75.412937
867.557649	75.193346
867.967392	74.975301
868.377102	74.724687
868.786779	74.511092
869.196423	74.305674
869.606034	74.109140
870.015612	73.947097
870.425156	73.755913
870.834668	73.566638
871.244146	73.384701
871.653591	73.199103
872.063003	73.020359
872.472382	72.835939
872.881728	72.644569
873.291040	72.482428
873.700319	72.323149
874.109564	72.160928
874.518777	72.016397
874.927956	71.837391
875.337102	71.658504
875.746214	71.501577
876.155293	71.354578
876.564338	71.200030
876.973350	71.076345
877.382329	70.936771
877.791274	70.791325
878.200186	70.663914
878.609064	70.538337
879.017909	70.437541
879.426720	70.306273
879.835497	70.183498
880.244241	70.058695
880.652952	69.952723
881.061629	69.851195
881.470272	69.752409
881.878881	69.631990
882.287457	69.514428
882.695999	69.382955
883.104507	69.262687
883.512982	69.149590
883.921423	69.034656
884.329830	68.941898
884.738203	68.843320
885.146543	68.739298
885.554849	68.658070
885.963120	68.509946
886.371358	68.418237
886.779563	68.294799
887.187733	68.177274
887.595869	68.070444
888.003971	67.937860
888.412040	67.823690
888.820074	67.708805
889.228074	67.600313
889.636041	67.469792
890.043973	67.350490
890.451871	67.227234
890.859736	67.070965
891.267566	66.904078
891.675362	66.738020
892.083124	66.580726
892.490851	66.401336
892.898545	66.216614
893.306204	65.992997
893.713829	65.782640
894.121420	65.551546
894.528977	65.331992
894.936499	65.111744
895.343987	64.899488
895.751441	64.685066
896.158860	64.441867
896.566246	64.175736
896.973596	63.874214
897.380913	63.593965
897.788195	63.291345
898.195442	62.972348
898.602655	62.699840
899.009834	62.365946
899.416978	62.046615
899.824088	61.696899
900.231163	61.392591
900.638204	61.056651
901.045210	60.705011
901.452181	60.346175
901.859118	59.968417
902.266021	59.609963
902.672888	59.251264
903.079721	58.920849
903.486520	58.579147
903.893283	58.250243
904.300012	57.921285
904.706707	57.579631
905.113366	57.261744
905.519991	56.986896
905.926581	56.701156
906.333136	56.410720
906.739656	56.128831
907.146142	55.861909
907.552592	55.583084
907.959008	55.316597
908.365389	55.067265
908.771735	54.825042
909.178046	54.624656
909.584322	54.432801
909.990563	54.254575
910.396769	54.085377
910.802940	53.915444
911.209076	53.774502
911.615177	53.641247
912.021243	53.513222
912.427274	53.406375
912.833270	53.298157
913.239231	53.188862
913.645156	53.080695
914.051046	52.970492
914.456902	52.893183
914.862721	52.798708
915.268506	52.717159
915.674256	52.624750
916.079970	52.564052
916.485649	52.502196
916.891292	52.434951
917.296901	52.387867
917.702474	52.323766
918.108011	52.233198
918.513514	52.154344
918.918980	52.094536
919.324412	52.023439
919.729808	51.942484
920.135169	51.887548
920.540494	51.815265
920.945783	51.707666
921.351037	51.613871
921.756256	51.534113
922.161439	51.425947
922.566586	51.315974
922.971698	51.210051
923.376775	51.089864
923.781815	50.945705
924.186820	50.792529
924.591790	50.698527
924.996723	50.564667
925.401621	50.398769
925.806484	50.245588
926.211310	50.096653
926.616101	49.935462
927.020856	49.773209
927.425575	49.609907
927.830259	49.426192
928.234906	49.234334
928.639518	49.058972
929.044094	48.849253
929.448634	48.660459
929.853138	48.440623
930.257606	48.229735
930.662038	48.016055
931.066434	47.831932
931.470795	47.617779
931.875119	47.424346
932.279407	47.232732
932.683659	47.010104
933.087875	46.805810
933.492055	46.618467
933.896199	46.443184
934.300307	46.228996
934.704379	46.060099
935.108414	45.891379
935.512414	45.699649
935.916377	45.560765
936.320304	45.417876
936.724195	45.278775
937.128049	45.107201
937.531867	44.936041
937.935649	44.808653
938.339395	44.703490
938.743104	44.566711
939.146777	44.474970
939.550414	44.392727
939.954014	44.293763
940.357578	44.214492
940.761105	44.141077
941.164596	44.037718
941.568050	44.009498
941.971468	43.934691
942.374850	43.883055
942.778195	43.838027
943.181503	43.794298
943.584775	43.742571
943.988010	43.705901
944.391209	43.620365
944.794371	43.556231
945.197496	43.476742
945.600585	43.382418
946.003637	43.305618
946.406653	43.204139
946.809632	43.121261
947.212574	43.032646
947.615479	42.920758
948.018347	42.828118
948.421179	42.698816
948.823974	42.545182
949.226732	42.452739
949.629453	42.282584
950.032138	42.201785
950.434785	42.031234
950.837396	41.872719
951.239969	41.718048
951.642506	41.568616
952.045006	41.366405
952.447469	41.158179
952.849895	40.948256
953.252283	40.745340
953.654635	40.542437
954.056950	40.297419
954.459227	40.068071
954.861468	39.857728
955.263671	39.588243
955.665838	39.391092
956.067967	39.129096
956.470059	38.876328
956.872114	38.674760
957.274131	38.407351
957.676112	38.213104
958.078055	38.028614
958.479961	37.753823
958.881829	37.521088
959.283661	37.309620
959.685455	37.077450
960.087211	36.844313
960.488931	36.631295
960.890613	36.392731
961.292257	36.167138
961.693864	35.945346
962.095434	35.759428
962.496966	35.492754
962.898461	35.342276
963.299918	35.179353
963.701338	35.020575
964.102720	34.808755
964.504065	34.615882
964.905372	34.465636
965.306641	34.273497
965.707873	34.087912
966.109068	33.924593
966.510224	33.789544
966.911343	33.644300
967.312425	33.511883
967.713468	33.424048
968.114474	33.249502
968.515442	33.110350
968.916373	33.006721
969.317265	32.891266
969.718120	32.788464
970.118937	32.678133
970.519716	32.544830
970.920458	32.510883
971.321161	32.448796
971.721827	32.381674
972.122454	32.270916
972.523044	32.231399
972.923596	32.180605
973.324110	32.160199
973.724585	32.191173
974.125023	32.148559
974.525423	32.117821
974.925785	32.144257
975.326108	32.124792
975.726394	32.070617
976.126642	32.010694
976.526851	32.037540
976.927022	32.043508
977.327155	32.061958
977.727250	32.125618
978.127307	32.144917
978.527325	32.205694
978.927306	32.216435
979.327248	32.249056
979.727151	32.256308
980.127017	32.331926
980.526844	32.354273
980.926633	32.401347
981.326383	32.433467
981.726095	32.499489
982.125769	32.555926
982.525404	32.592503
982.925001	32.585690
983.324560	32.620058
983.724079	32.604773
984.123561	32.612365
984.523004	32.728000
984.922408	32.797002
985.321774	32.852686
985.721102	32.893295
986.120390	32.830797
986.519641	32.869825
986.918852	32.874193
987.318025	32.869259
987.717159	32.837804
988.116255	32.876876
988.515312	32.922146
988.914330	32.949219
989.313310	32.989107
989.712250	33.017311
990.111152	33.012854
990.510015	33.032556
990.908840	33.001899
991.307625	32.996468
991.706372	33.021907
992.105080	33.049132
992.503749	32.969032
992.902379	33.030397
993.300970	33.102951
993.699522	33.099667
994.098035	33.169109
994.496510	33.207242
994.894945	33.237811
995.293341	33.319558
995.691698	33.354810
996.090016	33.510551
996.488296	33.520931
996.886535	33.553185
997.284736	33.519479
997.682898	33.405503
998.081021	33.383420
998.479104	33.479083
998.877148	33.622502
999.275153	33.708143
999.673119	33.690895
1000.071046	33.673839
1000.468933	33.825631
1000.866781	33.910542
1001.264590	33.953940
1001.662359	33.902446
1002.060089	33.923749
1002.457780	34.045521
1002.855431	34.193451
1003.253043	34.227208
1003.650615	34.381465
1004.048148	34.541599
1004.445642	34.619496
1004.843096	34.861790
1005.240511	34.992306
1005.637886	35.052212
1006.035221	35.243974
1006.432517	35.422086
1006.829774	35.699083
1007.226991	35.895600
1007.624168	36.265129
1008.021306	36.383442
1008.418404	36.564502
1008.815462	36.789917
1009.212481	37.129655
1009.609460	37.370918
1010.006399	37.816736
1010.403298	38.146817
1010.800158	38.689453
1011.196978	38.977219
1011.593758	39.355600
1011.990498	39.863301
1012.387199	40.412008
1012.783860	40.843261
1013.180480	41.462683
1013.577061	41.750217
1013.973602	42.561878
1014.370103	43.203469
1014.766564	43.529820
1015.162985	43.956124
1015.559366	44.458147
1015.955708	44.763610
1016.352009	44.977679
1016.748270	45.693258
1017.144491	45.828516
1017.540671	46.242715
1017.936812	46.617520
1018.332913	47.077922
1018.728973	47.279248
1019.124994	47.441983
1019.520974	47.945011
1019.916914	48.223815
1020.312814	48.821105
