Time1=100ms:Average1=5:Objective=10X:Aperture=1: (11/21/2018 3:05:22 PM)
11/21/2018 3:05:22 PM
Reflectance
10X
Ap#: 1
Avg1: 5.000000
Avg2: 0.000000
Int.Time1:100.000000

350.166136	96.039052
350.601937	96.623052
351.037728	96.970885
351.473509	97.274510
351.909281	97.182407
352.345042	97.096870
352.780794	96.999309
353.216536	97.447819
353.652267	97.593583
354.087989	97.396297
354.523701	97.175030
354.959403	96.880861
355.395095	97.170278
355.830777	97.416865
356.266449	96.957123
356.702110	96.721796
357.137762	96.410709
357.573404	96.061140
358.009035	95.781953
358.444656	95.911364
358.880268	95.734505
359.315869	95.790193
359.751459	95.482988
360.187040	96.310395
360.622610	96.947988
361.058170	96.761811
361.493720	96.934753
361.929260	96.776096
362.364789	97.125642
362.800308	96.694706
363.235816	96.736344
363.671314	96.832268
364.106802	96.842416
364.542279	96.787228
364.977746	96.946715
365.413203	97.306664
365.848649	97.201345
366.284084	96.928869
366.719509	96.860500
367.154924	97.047497
367.590328	97.212647
368.025721	97.171299
368.461104	97.273266
368.896477	97.723899
369.331838	97.131875
369.767189	97.560012
370.202530	97.680642
370.637859	98.067729
371.073178	98.316230
371.508486	98.486809
371.943784	98.152563
372.379071	97.924116
372.814347	97.713550
373.249612	97.832542
373.684866	97.640995
374.120110	97.935802
374.555343	98.158963
374.990565	98.028141
375.425776	98.147598
375.860976	97.934987
376.296165	98.322644
376.731343	98.122159
377.166511	98.333829
377.601667	98.265155
378.036812	98.118597
378.471946	97.979898
378.907070	97.746203
379.342182	97.536898
379.777283	97.697658
380.212373	97.430617
380.647452	97.158813
381.082520	97.346259
381.517576	97.379742
381.952622	96.964717
382.387656	96.738922
382.822679	96.905537
383.257691	96.640580
383.692692	96.751762
384.127681	96.922200
384.562659	96.588001
384.997626	96.079358
385.432581	96.260886
385.867525	96.872624
386.302458	96.794081
386.737379	97.079250
387.172289	96.534371
387.607188	95.874431
388.042075	95.759751
388.476951	95.641921
388.911815	95.109105
389.346668	94.902071
389.781509	94.774859
390.216338	94.822582
390.651157	94.892901
391.085963	94.885725
391.520758	95.295661
391.955541	94.904518
392.390313	94.775145
392.825073	94.551043
393.259821	94.536685
393.694558	94.525750
394.129283	94.634598
394.563996	94.401259
394.998698	94.754402
395.433388	95.023807
395.868066	94.689520
396.302732	94.474004
396.737386	94.136262
397.172029	94.054255
397.606659	93.230513
398.041278	92.771859
398.475885	92.742377
398.910480	92.151202
399.345063	91.327962
399.779634	90.300312
400.214194	88.707524
400.648741	87.146400
401.083276	85.516533
401.517799	83.672328
401.952310	81.395529
402.386809	79.147772
402.821296	76.489243
403.255771	73.605320
403.690234	70.328411
404.124684	66.951231
404.559123	63.589008
404.993549	60.087804
405.427963	56.515940
405.862365	53.152765
406.296754	50.067964
406.731131	47.055046
407.165496	44.261156
407.599849	41.588257
408.034190	39.039763
408.468518	36.682672
408.902833	34.527366
409.337137	32.527627
409.771428	30.689218
410.205706	28.852373
410.639973	27.334656
411.074226	25.982366
411.508467	24.757097
411.942696	23.598848
412.376912	22.534406
412.811116	21.562808
413.245307	20.723923
413.679486	19.948961
414.113652	19.219828
414.547805	18.518062
414.981946	17.872614
415.416074	17.289538
415.850190	16.784546
416.284293	16.363545
416.718383	15.950484
417.152460	15.537709
417.586525	15.233643
418.020577	14.953287
418.454616	14.634366
418.888643	14.398687
419.322656	14.188197
419.756657	13.976353
420.190645	13.742831
420.624620	13.539729
421.058582	13.349508
421.492531	13.171285
421.926468	13.027876
422.360391	12.870225
422.794301	12.766071
423.228199	12.667312
423.662083	12.591787
424.095955	12.468943
424.529813	12.351139
424.963658	12.283875
425.397491	12.181956
425.831310	12.087800
426.265116	12.018687
426.698909	11.927092
427.132689	11.865722
427.566455	11.803659
428.000209	11.771851
428.433949	11.727945
428.867676	11.691898
429.301389	11.672328
429.735090	11.626450
430.168777	11.602708
430.602451	11.583069
431.036111	11.536115
431.469759	11.489710
431.903392	11.463468
432.337013	11.429435
432.770620	11.391012
433.204213	11.355692
433.637794	11.368715
434.071360	11.372867
434.504914	11.349692
434.938453	11.341186
435.371979	11.335815
435.805492	11.349613
436.238991	11.346392
436.672477	11.346997
437.105949	11.363171
437.539407	11.367595
437.972852	11.384029
438.406283	11.394933
438.839700	11.421169
439.273104	11.444135
439.706494	11.440941
440.139871	11.463588
440.573233	11.468304
441.006582	11.459667
441.439917	11.450502
441.873238	11.460949
442.306546	11.462674
442.739839	11.449589
443.173119	11.435806
443.606385	11.413376
444.039636	11.395909
444.472874	11.379193
444.906099	11.373298
445.339309	11.365103
445.772505	11.349640
446.205687	11.369235
446.638855	11.371227
447.072009	11.356703
447.505149	11.345263
447.938275	11.358728
448.371387	11.360845
448.804485	11.354721
449.237569	11.342628
449.670638	11.341768
450.103694	11.330278
450.536735	11.305356
450.969762	11.287766
451.402774	11.259281
451.835773	11.209506
452.268757	11.202984
452.701727	11.178483
453.134683	11.173347
453.567624	11.156562
454.000551	11.141103
454.433464	11.132619
454.866362	11.119816
455.299246	11.094179
455.732116	11.082151
456.164971	11.064381
456.597811	11.052450
457.030638	11.029771
457.463449	11.019839
457.896246	11.008619
458.329029	10.992265
458.761797	10.975854
459.194551	10.965078
459.627290	10.924846
460.060014	10.902696
460.492724	10.875078
460.925419	10.859366
461.358099	10.848730
461.790765	10.833344
462.223416	10.826769
462.656052	10.805934
463.088674	10.776713
463.521281	10.761999
463.953873	10.768836
464.386450	10.755718
464.819012	10.760381
465.251560	10.780431
465.684093	10.768304
466.116611	10.790481
466.549114	10.810402
466.981602	10.847380
467.414075	10.873206
467.846533	10.915368
468.278977	10.957512
468.711405	11.018091
469.143818	11.086192
469.576216	11.162998
470.008600	11.243733
470.440968	11.328209
470.873321	11.419570
471.305659	11.506790
471.737982	11.608769
472.170289	11.728037
472.602582	11.834125
473.034859	11.956578
473.467122	12.077494
473.899369	12.203182
474.331600	12.328919
474.763817	12.462519
475.196018	12.611327
475.628204	12.763944
476.060375	12.929731
476.492530	13.108025
476.924670	13.287005
477.356795	13.462710
477.788904	13.665694
478.220998	13.855569
478.653076	14.043168
479.085139	14.242951
479.517186	14.434800
479.949219	14.608764
480.381235	14.787773
480.813236	14.975373
481.245221	15.162088
481.677191	15.347754
482.109146	15.516426
482.541084	15.695943
482.973008	15.862500
483.404915	16.036449
483.836807	16.211942
484.268683	16.388125
484.700544	16.552711
485.132388	16.711973
485.564217	16.864237
485.996031	17.021543
486.427828	17.167367
486.859610	17.312284
487.291376	17.458458
487.723126	17.595324
488.154860	17.731586
488.586579	17.864131
489.018281	18.003079
489.449968	18.146436
489.881639	18.289648
490.313293	18.429816
490.744932	18.566310
491.176555	18.701787
491.608162	18.845078
492.039753	18.991703
492.471328	19.131193
492.902886	19.270588
493.334429	19.415402
493.765956	19.543784
494.197466	19.672998
494.628960	19.796754
495.060439	19.931796
495.491901	20.070317
495.923347	20.196631
496.354776	20.337545
496.786190	20.478165
497.217587	20.633947
497.648968	20.786507
498.080332	20.968379
498.511681	21.147530
498.943013	21.333609
499.374328	21.529571
499.805628	21.731432
500.236911	21.934040
500.668177	22.133797
501.099427	22.340054
501.530661	22.538011
501.961878	22.737164
502.393079	22.923671
502.824264	23.101923
503.255431	23.282964
503.686583	23.449335
504.117717	23.633352
504.548835	23.812155
504.979937	23.985338
505.411022	24.162837
505.842090	24.342261
506.273142	24.519422
506.704177	24.709557
507.135195	24.907616
507.566197	25.104116
507.997182	25.297565
508.428150	25.495086
508.859102	25.679228
509.290036	25.861689
509.720954	26.035720
510.151855	26.211596
510.582739	26.373073
511.013607	26.545529
511.444457	26.702666
511.875291	26.867408
512.306107	27.039848
512.736907	27.210225
513.167690	27.389574
513.598456	27.583563
514.029205	27.786737
514.459936	28.008385
514.890651	28.246884
515.321349	28.500546
515.752030	28.788536
516.182693	29.093070
516.613340	29.419937
517.043969	29.787447
517.474582	30.165703
517.905177	30.573525
518.335755	31.011566
518.766315	31.462495
519.196859	31.930587
519.627385	32.417428
520.057894	32.908327
520.488386	33.409170
520.918860	33.936527
521.349318	34.498463
521.779757	35.067282
522.210180	35.674427
522.640585	36.305055
523.070973	36.967098
523.501343	37.641114
523.931696	38.341722
524.362031	39.039284
524.792349	39.778774
525.222650	40.526381
525.652933	41.296758
526.083198	42.068503
526.513446	42.856520
526.943677	43.651419
527.373890	44.451799
527.804085	45.264191
528.234262	46.077183
528.664422	46.890958
529.094565	47.679508
529.524689	48.477535
529.954796	49.287546
530.384885	50.090332
530.814957	50.891279
531.245011	51.680472
531.675047	52.461632
532.105065	53.268287
532.535065	54.079424
532.965048	54.892085
533.395013	55.723899
533.824959	56.554321
534.254888	57.380913
534.684799	58.230543
535.114693	59.085209
535.544568	59.934249
535.974425	60.773323
536.404264	61.602181
536.834086	62.413415
537.263889	63.221609
537.693674	64.019851
538.123441	64.796413
538.553190	65.550648
538.982921	66.284554
539.412634	67.011280
539.842329	67.717166
540.272006	68.414377
540.701664	69.094428
541.131304	69.744825
541.560926	70.384972
541.990530	71.009101
542.420116	71.627624
542.849683	72.230677
543.279232	72.807127
543.708763	73.371656
544.138275	73.908141
544.567769	74.440043
544.997245	74.945999
545.426702	75.435278
545.856141	75.894850
546.285562	76.357344
546.714964	76.785533
547.144347	77.224930
547.573713	77.644710
548.003059	78.049922
548.432387	78.450644
548.861697	78.837497
549.290988	79.229507
549.720260	79.611275
550.149514	79.978801
550.578750	80.339137
551.007966	80.720624
551.437164	81.092253
551.866344	81.489526
552.295504	81.876716
552.724646	82.268143
553.153769	82.673186
553.582874	83.078853
554.011960	83.478283
554.441027	83.874264
554.870075	84.273943
555.299104	84.673245
555.728115	85.067821
556.157106	85.463951
556.586079	85.839028
557.015033	86.211732
557.443968	86.583332
557.872884	86.946468
558.301781	87.311161
558.730659	87.632784
559.159518	87.987007
559.588358	88.320538
560.017180	88.649578
560.445982	88.955382
560.874765	89.260181
561.303528	89.562727
561.732273	89.837468
562.160999	90.118844
562.589705	90.386683
563.018393	90.659297
563.447061	90.913403
563.875710	91.166272
564.304340	91.402077
564.732950	91.632355
565.161542	91.855937
565.590114	92.079031
566.018666	92.299623
566.447200	92.497389
566.875714	92.700650
567.304208	92.911950
567.732684	93.126604
568.161140	93.314545
568.589576	93.498937
569.017993	93.684185
569.446391	93.854427
569.874769	94.026943
570.303128	94.189487
570.731467	94.354009
571.159787	94.500064
571.588087	94.632753
572.016368	94.794071
572.444629	94.920494
572.872870	95.040534
573.301092	95.184089
573.729294	95.297300
574.157476	95.407189
574.585639	95.510984
575.013782	95.626314
575.441906	95.731693
575.870009	95.840651
576.298093	95.948398
576.726157	96.077543
577.154202	96.183474
577.582226	96.295498
578.010231	96.413295
578.438216	96.520420
578.866181	96.631554
579.294126	96.737086
579.722051	96.854735
580.149957	96.965953
580.577842	97.071683
581.005707	97.159536
581.433553	97.271705
581.861378	97.378480
582.289184	97.494863
582.716969	97.605682
583.144734	97.702299
583.572479	97.816068
584.000205	97.906145
584.427910	98.006821
584.855594	98.125642
585.283259	98.208215
585.710904	98.289408
586.138528	98.377732
586.566132	98.416105
586.993716	98.478985
587.421280	98.523817
587.848823	98.555988
588.276346	98.577260
588.703849	98.585774
589.131332	98.572407
589.558794	98.523985
589.986236	98.448707
590.413657	98.387640
590.841058	98.300583
591.268438	98.189687
591.695799	98.055788
592.123138	97.920856
592.550458	97.768538
592.977756	97.607752
593.405034	97.430889
593.832292	97.238583
594.259529	97.049749
594.686746	96.851511
595.113942	96.648130
595.541117	96.429639
595.968272	96.219999
596.395406	96.008577
596.822519	95.785373
597.249612	95.571797
597.676684	95.362222
598.103735	95.133900
598.530766	94.934258
598.957775	94.727116
599.384764	94.514357
599.811733	94.340151
600.238680	94.151171
600.665606	93.971076
601.092512	93.783006
601.519397	93.603739
601.946261	93.418921
602.373104	93.235530
602.799926	93.083138
603.226727	92.936682
603.653507	92.773826
604.080266	92.612110
604.507004	92.462265
604.933721	92.315456
605.360417	92.150109
605.787092	91.993597
606.213746	91.837273
606.640379	91.669336
607.066991	91.516944
607.493581	91.358491
607.920150	91.198910
608.346699	91.021492
608.773226	90.853145
609.199731	90.671732
609.626216	90.488604
610.052679	90.286513
610.479121	90.080010
610.905542	89.846518
611.331941	89.615987
611.758319	89.360624
612.184676	89.106850
612.611011	88.827023
613.037325	88.521840
613.463617	88.219297
613.889888	87.888772
614.316138	87.546502
614.742366	87.181116
615.168573	86.805677
615.594758	86.403234
616.020921	85.970638
616.447063	85.521859
616.873184	85.056787
617.299283	84.575655
617.725360	84.069225
618.151416	83.554952
618.577450	83.019814
619.003462	82.474694
619.429453	81.910833
619.855422	81.351836
620.281369	80.790750
620.707295	80.200899
621.133199	79.590472
621.559081	78.989002
621.984941	78.366332
622.410779	77.718665
622.836596	77.063045
623.262391	76.399081
623.688163	75.717238
624.113914	75.023639
624.539644	74.311371
624.965351	73.593155
625.391036	72.856643
625.816699	72.111156
626.242340	71.350837
626.667960	70.564950
627.093557	69.788390
627.519132	69.006859
627.944685	68.217451
628.370216	67.429418
628.795725	66.665600
629.221212	65.896747
629.646677	65.157443
630.072119	64.442541
630.497540	63.746166
630.922938	63.084263
631.348314	62.446745
631.773668	61.853720
632.198999	61.298419
632.624308	60.777766
633.049595	60.281920
633.474860	59.815861
633.900102	59.406431
634.325322	59.038753
634.750520	58.708674
635.175695	58.417532
635.600848	58.175851
636.025978	57.980816
636.451086	57.826081
636.876171	57.704374
637.301234	57.625707
637.726275	57.583988
638.151293	57.583001
638.576288	57.618129
639.001261	57.692943
639.426211	57.792342
639.851139	57.937077
640.276044	58.119596
640.700927	58.334306
641.125787	58.576888
641.550624	58.850019
641.975438	59.139325
642.400230	59.459628
642.824999	59.789411
643.249745	60.131091
643.674469	60.490220
644.099169	60.846178
644.523847	61.216400
644.948502	61.583558
645.373135	61.939608
645.797744	62.297969
646.222330	62.654119
646.646894	62.995530
647.071435	63.322958
647.495953	63.653298
647.920447	63.961758
648.344919	64.250702
648.769368	64.525521
649.193794	64.789348
649.618197	65.019500
650.042576	65.247454
650.466933	65.474659
650.891267	65.696290
651.315577	65.906270
651.739864	66.109106
652.164129	66.304194
652.588370	66.506045
653.012587	66.697604
653.436782	66.894260
653.860953	67.088145
654.285102	67.302683
654.709226	67.526270
655.133328	67.748185
655.557406	67.990722
655.981461	68.250708
656.405493	68.537839
656.829501	68.827253
657.253486	69.148649
657.677448	69.468368
658.101386	69.815992
658.525301	70.180972
658.949192	70.546813
659.373060	70.923736
659.796904	71.300358
660.220725	71.690381
660.644522	72.065231
661.068296	72.437489
661.492046	72.813021
661.915772	73.196011
662.339475	73.550250
662.763154	73.920419
663.186810	74.270285
663.610442	74.595396
664.034050	74.905633
664.457635	75.195103
664.881196	75.478932
665.304733	75.748041
665.728247	75.995886
666.151736	76.237670
666.575202	76.455860
666.998644	76.664652
667.422062	76.846606
667.845457	77.007774
668.268827	77.148514
668.692174	77.264821
669.115496	77.356270
669.538795	77.411065
669.962070	77.462920
670.385321	77.472375
670.808547	77.468867
671.231750	77.429443
671.654929	77.376515
672.078084	77.312680
672.501214	77.210832
672.924321	77.123728
673.347404	77.022719
673.770462	76.912411
674.193496	76.797617
674.616506	76.685051
675.039492	76.558666
675.462454	76.456546
675.885391	76.349953
676.308305	76.254259
676.731194	76.170151
677.154058	76.093134
677.576899	76.037107
677.999715	75.989710
678.422507	75.955407
678.845274	75.922510
679.268017	75.917171
679.690736	75.908222
680.113430	75.910159
680.536100	75.934431
680.958746	75.972807
681.381367	76.043520
681.803963	76.115247
682.226535	76.200022
682.649083	76.311813
683.071605	76.426799
683.494104	76.565659
683.916578	76.719502
684.339027	76.899948
684.761451	77.088722
685.183851	77.287634
685.606227	77.525945
686.028577	77.758139
686.450903	78.006556
686.873204	78.264162
687.295481	78.534263
687.717733	78.805270
688.139959	79.072029
688.562162	79.344798
688.984339	79.622576
689.406492	79.896796
689.828619	80.162359
690.250722	80.421317
690.672800	80.666415
691.094853	80.900612
691.516881	81.123666
691.938884	81.359136
692.360863	81.555860
692.782816	81.749377
693.204744	81.938558
693.626647	82.101741
694.048526	82.252836
694.470379	82.381501
694.892207	82.509162
695.314010	82.621048
695.735788	82.719135
696.157540	82.796577
696.579268	82.866094
697.000970	82.924722
697.422648	82.965778
697.844300	82.987813
698.265926	83.006441
698.687528	83.011221
699.109104	83.001497
699.530655	82.981669
699.952181	82.962513
700.373681	82.939666
700.795156	82.914998
701.216606	82.905353
701.638030	82.887752
702.059429	82.857430
702.480803	82.854551
702.902151	82.851617
703.323473	82.863208
703.744770	82.871791
704.166042	82.894624
704.587288	82.920563
705.008509	82.962189
705.429704	83.022165
705.850873	83.092742
706.272017	83.163472
706.693135	83.255089
707.114228	83.355997
707.535295	83.466445
707.956336	83.590586
708.377352	83.715843
708.798342	83.855827
709.219306	83.999541
709.640245	84.144507
710.061157	84.290918
710.482044	84.436803
710.902905	84.583735
711.323741	84.718992
711.744550	84.857455
712.165334	85.002261
712.586092	85.135186
713.006823	85.262727
713.427529	85.390478
713.848209	85.507669
714.268863	85.615958
714.689492	85.717287
715.110094	85.822224
715.530670	85.901144
715.951220	85.989590
716.371744	86.073172
716.792242	86.151060
717.212714	86.224057
717.633159	86.305779
718.053579	86.374841
718.473973	86.440614
718.894340	86.504537
719.314681	86.572542
719.734996	86.634734
720.155285	86.687040
720.575547	86.742798
720.995784	86.802081
721.415994	86.859061
721.836177	86.910801
722.256335	86.973640
722.676466	87.027742
723.096570	87.088191
723.516649	87.147045
723.936701	87.221959
724.356726	87.300601
724.776725	87.373143
725.196698	87.447416
725.616644	87.536816
726.036564	87.626289
726.456457	87.713381
726.876324	87.797515
727.296164	87.883520
727.715977	87.981376
728.135764	88.071234
728.555525	88.162414
728.975258	88.247939
729.394966	88.311048
729.814646	88.378785
730.234300	88.439209
730.653927	88.492655
731.073527	88.519931
731.493101	88.543019
731.912648	88.562717
732.332168	88.567734
732.751661	88.562166
733.171128	88.558428
733.590568	88.540028
734.009980	88.495940
734.429366	88.460261
734.848726	88.401080
735.268058	88.336874
735.687363	88.279588
736.106641	88.210827
736.525893	88.125526
736.945117	88.035152
737.364314	87.956541
737.783485	87.867213
738.202628	87.775375
738.621744	87.670297
739.040834	87.564342
739.459896	87.469158
739.878931	87.383229
740.297939	87.282077
740.716919	87.171564
741.135873	87.077536
741.554799	86.985917
741.973698	86.900056
742.392570	86.814662
742.811415	86.740855
743.230232	86.661461
743.649022	86.595603
744.067785	86.534404
744.486521	86.481121
744.905229	86.433731
745.323909	86.385219
745.742563	86.344143
746.161189	86.301806
746.579787	86.274286
746.998358	86.249212
747.416902	86.228553
747.835418	86.220035
748.253907	86.216380
748.672368	86.206942
749.090802	86.208562
749.509208	86.222853
749.927586	86.238484
750.345937	86.265126
750.764261	86.285353
751.182556	86.313646
751.600824	86.354370
752.019065	86.410360
752.437277	86.455870
752.855462	86.515971
753.273620	86.586524
753.691749	86.665475
754.109851	86.735535
754.527925	86.811425
754.945971	86.888190
755.363989	86.983848
755.781980	87.078222
756.199943	87.193313
756.617877	87.294729
757.035784	87.414054
757.453663	87.530650
757.871514	87.634556
758.289337	87.767999
758.707132	87.891034
759.124899	88.003200
759.542639	88.112140
759.960350	88.215001
760.378033	88.308446
760.795688	88.371308
761.213314	88.422862
761.630913	88.462844
762.048484	88.475866
762.466026	88.473456
762.883541	88.449769
763.301027	88.381897
763.718485	88.326061
764.135914	88.244640
764.553316	88.143363
764.970689	88.026891
765.388034	87.892932
765.805351	87.735527
766.222639	87.574367
766.639899	87.394177
767.057131	87.224835
767.474334	87.051020
767.891509	86.878121
768.308655	86.706712
768.725773	86.533351
769.142863	86.363864
769.559924	86.207123
769.976957	86.063917
770.393961	85.928472
770.810936	85.821513
771.227883	85.693156
771.644802	85.595896
772.061692	85.524051
772.478553	85.470788
772.895386	85.444091
773.312190	85.429355
773.728965	85.457643
774.145712	85.500521
774.562430	85.571166
774.979119	85.661041
775.395780	85.772813
775.812411	85.897550
776.229014	86.044332
776.645589	86.197554
777.062134	86.368968
777.478651	86.535520
777.895138	86.699089
778.311597	86.888797
778.728027	87.074756
779.144428	87.274464
779.560800	87.467602
779.977143	87.649657
780.393458	87.806975
780.809743	87.959222
781.225999	88.100774
781.642226	88.230140
782.058425	88.330655
782.474594	88.406822
782.890734	88.471233
783.306845	88.515876
783.722926	88.534415
784.138979	88.548415
784.555003	88.534822
784.970997	88.498221
785.386962	88.438991
785.802898	88.351823
786.218805	88.266571
786.634682	88.154638
787.050531	88.052799
787.466349	87.920683
787.882139	87.778374
788.297899	87.648712
788.713630	87.517315
789.129332	87.378391
789.545004	87.248767
789.960647	87.124015
790.376260	87.025539
790.791844	86.924635
791.207399	86.827406
791.622924	86.754738
792.038419	86.681089
792.453885	86.619047
792.869321	86.574480
793.284728	86.554508
793.700106	86.530329
794.115453	86.541163
794.530771	86.561066
794.946060	86.607182
795.361319	86.658443
795.776548	86.704023
796.191747	86.755003
796.606917	86.814903
797.022057	86.885527
797.437167	86.949836
797.852248	87.013907
798.267298	87.060033
798.682319	87.125334
799.097310	87.177199
799.512271	87.225749
799.927203	87.236620
800.342104	87.241193
800.756976	87.239842
801.171818	87.207391
801.586629	87.174720
802.001411	87.137526
802.416163	87.069668
802.830885	87.011659
803.245577	86.921687
803.660238	86.851422
804.074870	86.751365
804.489472	86.638644
804.904043	86.537427
805.318585	86.435969
805.733096	86.334855
806.147577	86.237942
806.562028	86.137568
806.976449	86.022675
807.390840	85.923428
807.805200	85.813524
808.219530	85.728793
808.633830	85.669884
809.048100	85.603488
809.462339	85.544158
809.876548	85.506842
810.290727	85.502869
810.704875	85.515171
811.118993	85.535747
811.533080	85.580618
811.947137	85.615476
812.361164	85.667478
812.775160	85.745581
813.189126	85.830827
813.603061	85.943859
814.016966	86.070408
814.430840	86.194026
814.844684	86.335643
815.258497	86.490046
815.672280	86.620237
816.086032	86.780692
816.499753	86.930024
816.913444	87.067735
817.327104	87.216178
817.740733	87.329248
818.154331	87.443614
818.567899	87.538512
818.981436	87.610423
819.394943	87.690988
819.808418	87.750776
820.221863	87.780557
820.635277	87.799725
821.048660	87.794550
821.462013	87.741204
821.875334	87.710468
822.288625	87.628700
822.701884	87.525265
823.115113	87.390798
823.528311	87.240679
823.941478	87.071241
824.354614	86.857645
824.767718	86.658021
825.180792	86.415506
825.593835	86.162222
826.006847	85.922380
826.419827	85.646429
826.832777	85.371280
827.245695	85.092895
827.658582	84.810414
828.071438	84.537179
828.484263	84.260658
828.897057	83.977708
829.309819	83.704941
829.722551	83.473511
830.135251	83.225880
830.547919	83.008032
830.960557	82.797619
831.373163	82.613322
831.785738	82.471279
832.198281	82.324587
832.610793	82.195191
833.023274	82.084397
833.435723	81.975947
833.848141	81.893841
834.260528	81.846115
834.672883	81.782253
835.085206	81.760524
835.497498	81.721647
835.909758	81.685227
836.321987	81.627170
836.734185	81.584893
837.146350	81.555996
837.558485	81.512568
837.970587	81.479308
838.382658	81.435544
838.794697	81.373247
839.206705	81.299575
839.618681	81.217877
840.030625	81.150198
840.442538	81.046975
840.854418	80.941990
841.266267	80.852397
841.678084	80.764716
842.089870	80.652631
842.501623	80.555422
842.913345	80.458529
843.325035	80.363216
843.736693	80.276366
844.148319	80.179886
844.559913	80.071885
844.971475	79.983947
845.383005	79.901048
845.794504	79.817342
846.205970	79.765123
846.617404	79.704293
847.028806	79.629640
847.440176	79.583320
847.851514	79.548398
848.262820	79.536323
848.674094	79.520787
849.085336	79.545493
849.496546	79.590025
849.907723	79.644610
850.318868	79.715465
850.729981	79.793707
851.141062	79.908440
851.552110	80.044615
851.963127	80.213689
852.374111	80.390317
852.785062	80.564699
853.195982	80.791376
853.606869	81.007275
854.017723	81.237866
854.428546	81.439863
854.839336	81.668968
855.250093	81.876352
855.660818	82.082790
856.071511	82.289051
856.482171	82.497432
856.892799	82.692110
857.303394	82.881468
857.713956	83.018989
858.124486	83.150317
858.534984	83.249196
858.945449	83.321512
859.355881	83.362016
859.766280	83.394270
860.176647	83.367456
860.586982	83.327874
860.997283	83.253841
861.407552	83.151037
861.817789	83.013959
862.227992	82.851250
862.638163	82.628629
863.048301	82.406334
863.458406	82.165291
863.868478	81.891922
864.278518	81.609353
864.688524	81.314912
865.098498	80.998193
865.508439	80.670903
865.918347	80.301058
866.328222	79.956841
866.738064	79.589362
867.147873	79.237513
867.557649	78.865269
867.967392	78.511415
868.377102	78.156796
868.786779	77.808239
869.196423	77.432127
869.606034	77.058081
870.015612	76.698709
870.425156	76.374036
870.834668	76.036623
871.244146	75.774531
871.653591	75.491882
872.063003	75.195755
872.472382	74.912497
872.881728	74.673273
873.291040	74.407497
873.700319	74.151720
874.109564	73.929672
874.518777	73.698823
874.927956	73.461721
875.337102	73.253517
875.746214	72.998946
876.155293	72.774242
876.564338	72.508720
876.973350	72.219586
877.382329	71.926046
877.791274	71.630747
878.200186	71.315248
878.609064	70.996902
879.017909	70.626141
879.426720	70.237301
879.835497	69.841722
880.244241	69.454673
880.652952	69.019850
881.061629	68.585422
881.470272	68.139495
881.878881	67.708378
882.287457	67.268475
882.695999	66.792299
883.104507	66.326591
883.512982	65.873610
883.921423	65.392170
884.329830	64.938326
884.738203	64.541244
885.146543	64.147439
885.554849	63.728810
885.963120	63.367807
886.371358	63.005739
886.779563	62.655204
887.187733	62.318112
887.595869	62.021304
888.003971	61.703418
888.412040	61.429910
888.820074	61.153269
889.228074	60.932161
889.636041	60.713046
890.043973	60.511639
890.451871	60.307083
890.859736	60.150591
891.267566	60.006043
891.675362	59.887071
892.083124	59.794095
892.490851	59.706665
892.898545	59.602408
893.306204	59.518973
893.713829	59.444827
894.121420	59.378342
894.528977	59.313703
894.936499	59.250678
895.343987	59.208481
895.751441	59.157689
896.158860	59.099586
896.566246	59.049583
896.973596	58.974181
897.380913	58.872078
897.788195	58.768133
898.195442	58.665036
898.602655	58.522558
899.009834	58.389451
899.416978	58.222879
899.824088	58.055335
900.231163	57.837166
900.638204	57.651392
901.045210	57.434681
901.452181	57.199951
901.859118	56.896461
902.266021	56.636835
902.672888	56.327847
903.079721	56.035396
903.486520	55.694645
903.893283	55.340735
904.300012	54.995296
904.706707	54.620429
905.113366	54.264377
905.519991	53.928175
905.926581	53.605087
906.333136	53.272039
906.739656	52.916125
907.146142	52.565847
907.552592	52.229536
907.959008	51.910304
908.365389	51.597893
908.771735	51.302737
909.178046	51.027917
909.584322	50.754294
909.990563	50.500874
910.396769	50.275485
910.802940	50.059197
911.209076	49.856414
911.615177	49.669294
912.021243	49.506758
912.427274	49.359876
912.833270	49.240719
913.239231	49.135903
913.645156	49.031206
914.051046	48.958669
914.456902	48.912343
914.862721	48.875526
915.268506	48.857524
915.674256	48.831386
916.079970	48.823962
916.485649	48.832551
916.891292	48.821951
917.296901	48.840876
917.702474	48.820635
918.108011	48.818029
918.513514	48.787674
918.918980	48.767688
919.324412	48.747477
919.729808	48.698912
920.135169	48.636124
920.540494	48.559920
920.945783	48.467027
921.351037	48.367262
921.756256	48.220104
922.161439	48.096484
922.566586	47.933448
922.971698	47.723722
923.376775	47.531487
923.781815	47.302465
924.186820	47.067212
924.591790	46.835907
924.996723	46.583302
925.401621	46.298758
925.806484	46.009603
926.211310	45.703143
926.616101	45.404062
927.020856	45.127371
927.425575	44.779574
927.830259	44.440590
928.234906	44.110606
928.639518	43.767569
929.044094	43.439361
929.448634	43.129686
929.853138	42.790675
930.257606	42.490270
930.662038	42.150772
931.066434	41.820280
931.470795	41.519252
931.875119	41.266764
932.279407	41.018717
932.683659	40.757068
933.087875	40.517219
933.492055	40.331757
933.896199	40.128813
934.300307	39.935630
934.704379	39.769535
935.108414	39.624296
935.512414	39.519055
935.916377	39.390810
936.320304	39.304142
936.724195	39.229065
937.128049	39.150873
937.531867	39.088537
937.935649	39.070609
938.339395	39.045519
938.743104	39.029757
939.146777	39.023616
939.550414	38.991847
939.954014	39.002284
940.357578	38.997972
940.761105	38.973858
941.164596	38.970773
941.568050	38.926625
941.971468	38.875952
942.374850	38.819127
942.778195	38.751577
943.181503	38.679872
943.584775	38.615749
943.988010	38.511677
944.391209	38.350095
944.794371	38.205390
945.197496	38.098365
945.600585	37.964708
946.003637	37.757759
946.406653	37.559645
946.809632	37.364279
947.212574	37.138120
947.615479	36.895111
948.018347	36.633555
948.421179	36.384377
948.823974	36.152244
949.226732	35.878035
949.629453	35.594054
950.032138	35.320832
950.434785	34.996194
950.837396	34.675360
951.239969	34.350262
951.642506	34.019493
952.045006	33.672930
952.447469	33.340455
952.849895	32.986972
953.252283	32.679318
953.654635	32.337112
954.056950	32.004432
954.459227	31.669084
954.861468	31.360076
955.263671	31.040719
955.665838	30.767933
956.067967	30.502714
956.470059	30.225810
956.872114	29.974698
957.274131	29.738668
957.676112	29.515135
958.078055	29.276228
958.479961	29.066393
958.881829	28.885669
959.283661	28.720087
959.685455	28.516581
960.087211	28.381145
960.488931	28.243083
960.890613	28.075558
961.292257	27.902852
961.693864	27.777607
962.095434	27.588613
962.496966	27.424417
962.898461	27.310248
963.299918	27.155775
963.701338	27.070928
964.102720	26.919151
964.504065	26.828837
964.905372	26.721742
965.306641	26.633753
965.707873	26.542956
966.109068	26.445742
966.510224	26.355847
966.911343	26.272643
967.312425	26.177069
967.713468	26.117920
968.114474	26.052037
968.515442	25.976465
968.916373	25.853491
969.317265	25.804329
969.718120	25.754230
970.118937	25.647537
970.519716	25.602560
970.920458	25.552806
971.321161	25.511779
971.721827	25.457905
972.122454	25.433001
972.523044	25.374133
972.923596	25.355993
973.324110	25.382755
973.724585	25.353522
974.125023	25.296283
974.525423	25.341700
974.925785	25.347280
975.326108	25.344357
975.726394	25.369129
976.126642	25.382758
976.526851	25.419762
976.927022	25.452490
977.327155	25.533110
977.727250	25.607527
978.127307	25.623164
978.527325	25.704469
978.927306	25.786695
979.327248	25.913366
979.727151	26.016401
980.127017	26.085305
980.526844	26.172751
980.926633	26.271836
981.326383	26.511619
981.726095	26.599704
982.125769	26.716631
982.525404	26.907031
982.925001	27.009481
983.324560	27.203217
983.724079	27.332119
984.123561	27.460466
984.523004	27.615561
984.922408	27.788550
985.321774	27.901418
985.721102	27.978534
986.120390	28.125268
986.519641	28.329210
986.918852	28.472098
987.318025	28.653164
987.717159	28.859614
988.116255	29.066101
988.515312	29.226027
988.914330	29.412598
989.313310	29.537454
989.712250	29.600450
990.111152	29.874443
990.510015	30.052078
990.908840	30.202170
991.307625	30.392268
991.706372	30.486354
992.105080	30.626497
992.503749	30.776267
992.902379	30.921006
993.300970	31.061003
993.699522	31.217547
994.098035	31.362837
994.496510	31.455707
994.894945	31.501550
995.293341	31.660637
995.691698	31.785943
996.090016	31.888440
996.488296	32.013587
996.886535	32.194539
997.284736	32.269343
997.682898	32.454917
998.081021	32.675293
998.479104	32.950341
998.877148	33.103259
999.275153	33.449637
999.673119	33.583588
1000.071046	33.722885
1000.468933	33.989838
1000.866781	34.181503
1001.264590	34.455394
1001.662359	34.564063
1002.060089	34.714466
1002.457780	34.696258
1002.855431	34.932369
1003.253043	35.173705
1003.650615	35.540438
1004.048148	36.039060
1004.445642	36.383245
1004.843096	36.700121
1005.240511	36.990057
1005.637886	37.318922
1006.035221	37.456157
1006.432517	37.853130
1006.829774	38.296920
1007.226991	38.584418
1007.624168	39.077805
1008.021306	39.361423
1008.418404	39.662866
1008.815462	40.038945
1009.212481	40.445677
1009.609460	41.173294
1010.006399	41.687295
1010.403298	42.062790
1010.800158	42.545104
1011.196978	43.048290
1011.593758	43.323864
1011.990498	44.155008
1012.387199	44.843457
1012.783860	45.305765
1013.180480	46.003610
1013.577061	46.560139
1013.973602	47.549358
1014.370103	48.549793
1014.766564	49.184640
1015.162985	49.726603
1015.559366	50.196570
1015.955708	50.269983
1016.352009	50.333427
1016.748270	50.865499
1017.144491	51.406731
1017.540671	52.121076
1017.936812	52.653061
1018.332913	53.332480
1018.728973	53.806062
1019.124994	54.398590
1019.520974	55.751509
1019.916914	56.140351
1020.312814	57.134800
