Time1=100ms:Average1=5:Objective=10X:Aperture=1: (11/28/2018 11:17:12 AM)
11/28/2018 11:17:12 AM
Reflectance
10X
Ap#: 1
Avg1: 5.000000
Avg2: 0.000000
Int.Time1:100.000000

350.166136	91.351351
350.601937	91.257244
351.037728	91.962826
351.473509	91.730225
351.909281	91.716997
352.345042	92.034549
352.780794	92.147967
353.216536	92.149991
353.652267	91.706037
354.087989	91.650588
354.523701	92.093473
354.959403	91.905891
355.395095	92.205273
355.830777	92.326012
356.266449	92.700601
356.702110	92.942837
357.137762	93.497302
357.573404	93.215365
358.009035	93.241318
358.444656	93.457110
358.880268	93.623292
359.315869	93.218831
359.751459	92.952092
360.187040	93.100678
360.622610	93.195213
361.058170	93.725946
361.493720	93.596366
361.929260	93.560775
362.364789	93.773450
362.800308	93.671562
363.235816	93.502574
363.671314	93.745558
364.106802	93.640078
364.542279	93.908720
364.977746	93.945850
365.413203	93.798724
365.848649	93.668084
366.284084	93.821915
366.719509	93.712919
367.154924	94.227353
367.590328	94.235723
368.025721	94.000354
368.461104	94.179237
368.896477	93.672785
369.331838	93.372062
369.767189	93.108890
370.202530	93.139402
370.637859	93.015287
371.073178	93.073821
371.508486	92.844053
371.943784	92.413314
372.379071	92.241529
372.814347	92.133658
373.249612	92.701620
373.684866	92.986583
374.120110	93.111246
374.555343	92.995127
374.990565	93.051914
375.425776	93.086873
375.860976	93.250196
376.296165	93.550928
376.731343	93.677205
377.166511	93.095905
377.601667	93.270831
378.036812	92.921280
378.471946	92.889469
378.907070	93.213538
379.342182	93.229031
379.777283	93.513043
380.212373	93.617942
380.647452	93.170437
381.082520	93.270883
381.517576	93.023656
381.952622	93.081761
382.387656	93.250367
382.822679	93.532209
383.257691	93.800329
383.692692	93.929934
384.127681	93.862910
384.562659	94.477573
384.997626	94.536510
385.432581	95.006479
385.867525	95.028862
386.302458	95.386340
386.737379	95.298668
387.172289	95.245845
387.607188	95.088712
388.042075	94.746765
388.476951	95.002563
388.911815	94.672548
389.346668	94.586581
389.781509	94.161386
390.216338	93.999324
390.651157	94.000506
391.085963	93.937610
391.520758	93.781598
391.955541	93.669077
392.390313	93.486654
392.825073	93.705353
393.259821	93.421604
393.694558	93.265768
394.129283	93.269311
394.563996	92.917847
394.998698	93.050257
395.433388	92.974780
395.868066	93.048635
396.302732	92.859781
396.737386	92.713742
397.172029	92.450833
397.606659	91.726313
398.041278	90.368680
398.475885	90.121200
398.910480	89.450083
399.345063	88.957294
399.779634	88.053165
400.214194	86.413330
400.648741	84.710316
401.083276	83.115665
401.517799	81.187496
401.952310	78.342915
402.386809	75.521512
402.821296	72.357978
403.255771	69.194935
403.690234	66.032701
404.124684	62.757587
404.559123	59.465176
404.993549	56.129032
405.427963	52.916538
405.862365	49.735102
406.296754	46.739921
406.731131	43.726182
407.165496	41.137522
407.599849	38.677910
408.034190	36.299177
408.468518	34.131483
408.902833	32.053063
409.337137	30.251823
409.771428	28.599748
410.205706	26.995613
410.639973	25.603447
411.074226	24.431794
411.508467	23.293872
411.942696	22.257469
412.376912	21.288392
412.811116	20.371953
413.245307	19.579353
413.679486	18.937341
414.113652	18.273962
414.547805	17.698032
414.981946	17.211373
415.416074	16.789038
415.850190	16.344968
416.284293	15.974002
416.718383	15.639927
417.152460	15.326934
417.586525	15.035422
418.020577	14.756544
418.454616	14.489101
418.888643	14.259168
419.322656	14.065495
419.756657	13.884799
420.190645	13.718366
420.624620	13.572829
421.058582	13.453082
421.492531	13.323272
421.926468	13.209535
422.360391	13.123305
422.794301	13.032772
423.228199	12.956610
423.662083	12.903439
424.095955	12.849571
424.529813	12.789528
424.963658	12.795427
425.397491	12.766787
425.831310	12.746923
426.265116	12.756135
426.698909	12.756895
427.132689	12.747980
427.566455	12.760312
428.000209	12.768989
428.433949	12.751870
428.867676	12.767246
429.301389	12.800326
429.735090	12.845283
430.168777	12.892909
430.602451	12.931466
431.036111	12.951913
431.469759	12.993180
431.903392	13.047200
432.337013	13.072708
432.770620	13.115384
433.204213	13.170309
433.637794	13.214472
434.071360	13.265623
434.504914	13.306228
434.938453	13.370963
435.371979	13.423901
435.805492	13.498284
436.238991	13.549923
436.672477	13.611273
437.105949	13.704100
437.539407	13.774240
437.972852	13.845887
438.406283	13.916011
438.839700	13.988238
439.273104	14.085677
439.706494	14.151189
440.139871	14.228559
440.573233	14.302917
441.006582	14.397723
441.439917	14.472555
441.873238	14.553406
442.306546	14.616608
442.739839	14.703654
443.173119	14.771896
443.606385	14.852353
444.039636	14.935830
444.472874	15.023957
444.906099	15.102745
445.339309	15.185771
445.772505	15.292512
446.205687	15.380886
446.638855	15.473578
447.072009	15.582636
447.505149	15.669490
447.938275	15.772689
448.371387	15.865050
448.804485	15.966213
449.237569	16.044082
449.670638	16.141863
450.103694	16.228749
450.536735	16.292275
450.969762	16.391629
451.402774	16.481368
451.835773	16.564585
452.268757	16.643509
452.701727	16.708707
453.134683	16.792538
453.567624	16.874946
454.000551	16.966826
454.433464	17.049861
454.866362	17.129977
455.299246	17.219399
455.732116	17.318146
456.164971	17.416537
456.597811	17.490704
457.030638	17.584306
457.463449	17.679770
457.896246	17.786051
458.329029	17.892485
458.761797	17.983484
459.194551	18.070738
459.627290	18.160646
460.060014	18.240627
460.492724	18.321347
460.925419	18.405249
461.358099	18.489250
461.790765	18.563877
462.223416	18.638949
462.656052	18.722820
463.088674	18.791562
463.521281	18.857792
463.953873	18.921346
464.386450	18.972871
464.819012	19.033546
465.251560	19.094708
465.684093	19.164629
466.116611	19.233559
466.549114	19.293628
466.981602	19.340599
467.414075	19.377325
467.846533	19.413462
468.278977	19.454624
468.711405	19.490183
469.143818	19.525790
469.576216	19.546388
470.008600	19.587878
470.440968	19.616316
470.873321	19.634762
471.305659	19.644387
471.737982	19.669949
472.170289	19.692508
472.602582	19.722365
473.034859	19.746981
473.467122	19.764980
473.899369	19.775339
474.331600	19.787300
474.763817	19.803030
475.196018	19.819520
475.628204	19.828961
476.060375	19.840680
476.492530	19.858399
476.924670	19.879767
477.356795	19.905201
477.788904	19.932933
478.220998	19.963564
478.653076	19.998091
479.085139	20.022043
479.517186	20.054791
479.949219	20.094446
480.381235	20.147307
480.813236	20.199371
481.245221	20.265893
481.677191	20.334383
482.109146	20.408104
482.541084	20.485353
482.973008	20.572388
483.404915	20.660108
483.836807	20.744989
484.268683	20.847405
484.700544	20.952287
485.132388	21.053002
485.564217	21.173805
485.996031	21.290237
486.427828	21.420715
486.859610	21.548199
487.291376	21.700136
487.723126	21.859077
488.154860	22.022849
488.586579	22.192156
489.018281	22.367315
489.449968	22.548024
489.881639	22.741572
490.313293	22.944234
490.744932	23.163237
491.176555	23.386550
491.608162	23.619317
492.039753	23.857437
492.471328	24.112730
492.902886	24.374871
493.334429	24.647169
493.765956	24.916675
494.197466	25.207566
494.628960	25.495480
495.060439	25.788285
495.491901	26.091461
495.923347	26.400157
496.354776	26.717273
496.786190	27.037229
497.217587	27.389321
497.648968	27.745532
498.080332	28.117073
498.511681	28.488454
498.943013	28.876437
499.374328	29.281944
499.805628	29.691939
500.236911	30.116891
500.668177	30.534947
501.099427	30.948256
501.530661	31.346246
501.961878	31.744896
502.393079	32.133140
502.824264	32.531010
503.255431	32.895870
503.686583	33.263541
504.117717	33.609730
504.548835	33.948811
504.979937	34.289957
505.411022	34.613368
505.842090	34.937568
506.273142	35.256417
506.704177	35.563693
507.135195	35.871631
507.566197	36.183714
507.997182	36.492102
508.428150	36.800999
508.859102	37.110663
509.290036	37.419471
509.720954	37.721880
510.151855	38.036726
510.582739	38.331821
511.013607	38.633409
511.444457	38.937101
511.875291	39.246256
512.306107	39.544536
512.736907	39.847564
513.167690	40.156712
513.598456	40.462013
514.029205	40.787287
514.459936	41.109944
514.890651	41.456702
515.321349	41.800833
515.752030	42.171194
516.182693	42.543328
516.613340	42.940266
517.043969	43.347751
517.474582	43.791775
517.905177	44.251072
518.335755	44.713209
518.766315	45.211650
519.196859	45.724995
519.627385	46.259385
520.057894	46.803181
520.488386	47.374101
520.918860	47.947098
521.349318	48.543209
521.779757	49.161685
522.210180	49.802780
522.640585	50.461891
523.070973	51.141959
523.501343	51.833447
523.931696	52.544386
524.362031	53.253195
524.792349	53.980389
525.222650	54.715570
525.652933	55.467550
526.083198	56.223974
526.513446	56.986677
526.943677	57.758422
527.373890	58.522165
527.804085	59.286165
528.234262	60.044070
528.664422	60.809425
529.094565	61.567083
529.524689	62.322741
529.954796	63.084198
530.384885	63.821945
530.814957	64.543092
531.245011	65.243415
531.675047	65.955690
532.105065	66.641765
532.535065	67.324353
532.965048	67.994334
533.395013	68.664318
533.824959	69.310210
534.254888	69.942881
534.684799	70.580624
535.114693	71.209380
535.544568	71.810830
535.974425	72.401140
536.404264	72.973572
536.834086	73.548462
537.263889	74.091928
537.693674	74.637317
538.123441	75.158325
538.553190	75.682734
538.982921	76.189719
539.412634	76.681902
539.842329	77.162477
540.272006	77.646023
540.701664	78.093859
541.131304	78.558801
541.560926	79.009550
541.990530	79.460104
542.420116	79.908355
542.849683	80.331868
543.279232	80.741245
543.708763	81.145321
544.138275	81.554523
544.567769	81.964804
544.997245	82.338712
545.426702	82.706490
545.856141	83.063100
546.285562	83.406210
546.714964	83.727198
547.144347	84.056116
547.573713	84.381079
548.003059	84.687005
548.432387	85.005400
548.861697	85.293586
549.290988	85.571858
549.720260	85.846883
550.149514	86.112990
550.578750	86.373725
551.007966	86.624389
551.437164	86.873647
551.866344	87.109114
552.295504	87.328539
552.724646	87.533306
553.153769	87.735930
553.582874	87.925650
554.011960	88.114170
554.441027	88.277003
554.870075	88.441961
555.299104	88.599741
555.728115	88.740439
556.157106	88.883147
556.586079	89.022241
557.015033	89.151795
557.443968	89.268691
557.872884	89.401459
558.301781	89.536625
558.730659	89.649266
559.159518	89.760715
559.588358	89.878369
560.017180	90.001810
560.445982	90.124692
560.874765	90.241688
561.303528	90.370323
561.732273	90.461651
562.160999	90.575793
562.589705	90.686908
563.018393	90.791782
563.447061	90.890797
563.875710	90.983028
564.304340	91.076956
564.732950	91.178377
565.161542	91.261141
565.590114	91.368434
566.018666	91.478201
566.447200	91.582994
566.875714	91.695765
567.304208	91.821926
567.732684	91.942400
568.161140	92.045734
568.589576	92.168612
569.017993	92.294385
569.446391	92.405618
569.874769	92.530246
570.303128	92.640326
570.731467	92.740212
571.159787	92.803401
571.588087	92.875513
572.016368	92.948965
572.444629	93.014154
572.872870	93.068726
573.301092	93.126518
573.729294	93.160523
574.157476	93.212004
574.585639	93.224543
575.013782	93.263685
575.441906	93.297291
575.870009	93.303814
576.298093	93.320100
576.726157	93.323466
577.154202	93.336237
577.582226	93.335781
578.010231	93.335089
578.438216	93.337770
578.866181	93.326441
579.294126	93.315438
579.722051	93.305608
580.149957	93.283248
580.577842	93.260349
581.005707	93.234572
581.433553	93.214670
581.861378	93.165686
582.289184	93.114867
582.716969	93.069129
583.144734	93.018431
583.572479	92.992560
584.000205	92.954909
584.427910	92.936721
584.855594	92.890219
585.283259	92.873123
585.710904	92.854869
586.138528	92.838702
586.566132	92.810266
586.993716	92.793672
587.421280	92.763696
587.848823	92.750877
588.276346	92.723320
588.703849	92.687551
589.131332	92.671231
589.558794	92.646615
589.986236	92.634413
590.413657	92.609419
590.841058	92.584674
591.268438	92.548256
591.695799	92.533591
592.123138	92.516035
592.550458	92.494164
592.977756	92.465905
593.405034	92.439636
593.832292	92.412225
594.259529	92.384853
594.686746	92.363052
595.113942	92.344521
595.541117	92.319982
595.968272	92.301697
596.395406	92.257794
596.822519	92.213356
597.249612	92.169582
597.676684	92.129682
598.103735	92.080866
598.530766	92.015742
598.957775	91.938666
599.384764	91.853493
599.811733	91.761475
600.238680	91.660316
600.665606	91.526367
601.092512	91.385942
601.519397	91.218332
601.946261	91.052567
602.373104	90.863100
602.799926	90.647900
603.226727	90.401176
603.653507	90.142504
604.080266	89.865318
604.507004	89.566994
604.933721	89.211081
605.360417	88.844253
605.787092	88.445467
606.213746	88.025567
606.640379	87.564217
607.066991	87.068625
607.493581	86.572976
607.920150	86.032791
608.346699	85.456212
608.773226	84.854151
609.199731	84.222569
609.626216	83.577331
610.052679	82.896767
610.479121	82.214826
610.905542	81.488496
611.331941	80.756742
611.758319	79.992196
612.184676	79.213906
612.611011	78.402790
613.037325	77.578379
613.463617	76.741542
613.889888	75.900519
614.316138	75.033782
614.742366	74.177515
615.168573	73.300833
615.594758	72.423376
616.020921	71.554381
616.447063	70.691698
616.873184	69.850413
617.299283	69.016450
617.725360	68.197430
618.151416	67.412919
618.577450	66.640400
619.003462	65.907453
619.429453	65.201150
619.855422	64.539728
620.281369	63.920413
620.707295	63.330872
621.133199	62.791928
621.559081	62.309765
621.984941	61.877537
622.410779	61.495443
622.836596	61.149381
623.262391	60.855621
623.688163	60.601290
624.113914	60.404576
624.539644	60.262842
624.965351	60.171960
625.391036	60.123935
625.816699	60.133982
626.242340	60.192823
626.667960	60.286582
627.093557	60.426409
627.519132	60.616272
627.944685	60.839833
628.370216	61.109582
628.795725	61.423242
629.221212	61.759963
629.646677	62.139628
630.072119	62.542285
630.497540	62.969048
630.922938	63.423959
631.348314	63.911416
631.773668	64.417852
632.198999	64.927963
632.624308	65.456170
633.049595	65.982689
633.474860	66.523903
633.900102	67.054776
634.325322	67.586602
634.750520	68.108157
635.175695	68.622626
635.600848	69.131561
636.025978	69.640882
636.451086	70.139478
636.876171	70.619516
637.301234	71.084602
637.726275	71.525123
638.151293	71.942912
638.576288	72.359002
639.001261	72.755926
639.426211	73.134634
639.851139	73.495229
640.276044	73.843007
640.700927	74.181065
641.125787	74.489160
641.550624	74.773427
641.975438	75.041657
642.400230	75.288886
642.824999	75.502561
643.249745	75.698129
643.674469	75.882351
644.099169	76.035350
644.523847	76.152288
644.948502	76.250800
645.373135	76.338670
645.797744	76.398500
646.222330	76.443376
646.646894	76.462807
647.071435	76.471865
647.495953	76.455089
647.920447	76.436041
648.344919	76.393831
648.769368	76.341423
649.193794	76.284385
649.618197	76.209282
650.042576	76.130581
650.466933	76.049855
650.891267	75.966919
651.315577	75.884545
651.739864	75.790539
652.164129	75.678048
652.588370	75.560816
653.012587	75.433949
653.436782	75.293307
653.860953	75.142224
654.285102	75.005159
654.709226	74.844901
655.133328	74.674928
655.557406	74.506866
655.981461	74.323926
656.405493	74.141014
656.829501	73.943263
657.253486	73.731081
657.677448	73.517090
658.101386	73.309295
658.525301	73.091268
658.949192	72.871968
659.373060	72.655570
659.796904	72.430771
660.220725	72.205055
660.644522	71.977107
661.068296	71.744704
661.492046	71.510823
661.915772	71.273690
662.339475	71.030885
662.763154	70.792901
663.186810	70.555337
663.610442	70.314655
664.034050	70.074858
664.457635	69.834229
664.881196	69.587581
665.304733	69.348336
665.728247	69.119265
666.151736	68.897155
666.575202	68.680216
666.998644	68.469677
667.422062	68.261831
667.845457	68.074904
668.268827	67.895312
668.692174	67.729345
669.115496	67.584456
669.538795	67.452038
669.962070	67.347148
670.385321	67.275018
670.808547	67.223320
671.231750	67.176631
671.654929	67.156886
672.078084	67.156284
672.501214	67.174110
672.924321	67.215927
673.347404	67.280895
673.770462	67.383797
674.193496	67.501468
674.616506	67.649543
675.039492	67.819337
675.462454	68.013356
675.885391	68.225921
676.308305	68.464104
676.731194	68.717727
677.154058	68.995917
677.576899	69.287298
677.999715	69.603518
678.422507	69.930553
678.845274	70.266948
679.268017	70.632076
679.690736	70.991578
680.113430	71.365103
680.536100	71.741459
680.958746	72.130490
681.381367	72.521961
681.803963	72.910907
682.226535	73.299538
682.649083	73.686762
683.071605	74.072407
683.494104	74.446364
683.916578	74.827810
684.339027	75.202518
684.761451	75.571706
685.183851	75.940430
685.606227	76.300173
686.028577	76.659412
686.450903	77.013482
686.873204	77.343256
687.295481	77.653235
687.717733	77.955822
688.139959	78.244400
688.562162	78.506631
688.984339	78.767480
689.406492	79.005305
689.828619	79.230058
690.250722	79.436465
690.672800	79.631000
691.094853	79.803146
691.516881	79.987989
691.938884	80.147154
692.360863	80.282539
692.782816	80.427481
693.204744	80.551505
693.626647	80.669609
694.048526	80.768978
694.470379	80.856749
694.892207	80.947011
695.314010	81.031932
695.735788	81.112551
696.157540	81.190356
696.579268	81.263551
697.000970	81.326364
697.422648	81.383570
697.844300	81.437491
698.265926	81.478250
698.687528	81.534904
699.109104	81.585728
699.530655	81.625142
699.952181	81.673199
700.373681	81.728877
700.795156	81.778972
701.216606	81.837198
701.638030	81.910466
702.059429	81.981119
702.480803	82.054837
702.902151	82.131356
703.323473	82.210329
703.744770	82.295008
704.166042	82.396393
704.587288	82.479353
705.008509	82.573726
705.429704	82.662306
705.850873	82.753607
706.272017	82.841877
706.693135	82.928893
707.114228	83.010203
707.535295	83.094438
707.956336	83.177556
708.377352	83.243192
708.798342	83.289216
709.219306	83.335793
709.640245	83.387201
710.061157	83.423985
710.482044	83.462219
710.902905	83.485312
711.323741	83.517088
711.744550	83.525763
712.165334	83.531244
712.586092	83.533958
713.006823	83.531670
713.427529	83.529389
713.848209	83.524287
714.268863	83.501066
714.689492	83.481945
715.110094	83.453980
715.530670	83.422438
715.951220	83.392074
716.371744	83.350432
716.792242	83.313598
717.212714	83.247556
717.633159	83.197518
718.053579	83.148932
718.473973	83.092617
718.894340	83.032274
719.314681	82.984589
719.734996	82.924402
720.155285	82.881155
720.575547	82.846653
720.995784	82.805585
721.415994	82.791156
721.836177	82.788987
722.256335	82.776268
722.676466	82.766255
723.096570	82.777440
723.516649	82.792297
723.936701	82.815745
724.356726	82.834402
724.776725	82.867897
725.196698	82.911007
725.616644	82.963582
726.036564	83.009192
726.456457	83.065673
726.876324	83.130777
727.296164	83.207001
727.715977	83.275966
728.135764	83.349604
728.555525	83.433270
728.975258	83.506561
729.394966	83.605302
729.814646	83.699819
730.234300	83.812124
730.653927	83.913831
731.073527	84.017635
731.493101	84.143959
731.912648	84.264329
732.332168	84.389343
732.751661	84.522444
733.171128	84.650535
733.590568	84.777552
734.009980	84.909650
734.429366	85.027571
734.848726	85.151105
735.268058	85.272138
735.687363	85.392027
736.106641	85.507987
736.525893	85.617250
736.945117	85.730785
737.364314	85.852615
737.783485	85.969435
738.202628	86.063760
738.621744	86.156076
739.040834	86.259722
739.459896	86.352859
739.878931	86.433049
740.297939	86.506854
740.716919	86.591054
741.135873	86.658908
741.554799	86.718251
741.973698	86.788574
742.392570	86.833184
742.811415	86.873985
743.230232	86.905746
743.649022	86.935415
744.067785	86.966616
744.486521	86.965951
744.905229	86.961455
745.323909	86.956972
745.742563	86.949668
746.161189	86.942405
746.579787	86.927518
746.998358	86.900996
747.416902	86.874775
747.835418	86.832128
748.253907	86.786751
748.672368	86.749726
749.090802	86.694242
749.509208	86.643632
749.927586	86.590691
750.345937	86.529223
750.764261	86.463649
751.182556	86.428241
751.600824	86.393132
752.019065	86.345294
752.437277	86.298210
752.855462	86.273189
753.273620	86.245972
753.691749	86.214318
754.109851	86.202777
754.527925	86.192643
754.945971	86.190031
755.363989	86.200406
755.781980	86.210688
756.199943	86.233346
756.617877	86.246802
757.035784	86.248255
757.453663	86.267561
757.871514	86.294861
758.289337	86.300867
758.707132	86.317973
759.124899	86.324039
759.542639	86.330185
759.960350	86.348739
760.378033	86.371963
760.795688	86.394700
761.213314	86.432154
761.630913	86.453357
762.048484	86.486590
762.466026	86.517604
762.883541	86.540072
763.301027	86.575285
763.718485	86.608827
764.135914	86.634198
764.553316	86.644238
764.970689	86.667482
765.388034	86.685392
765.805351	86.685505
766.222639	86.688493
766.639899	86.677851
767.057131	86.668354
767.474334	86.645571
767.891509	86.615279
768.308655	86.574027
768.725773	86.526736
769.142863	86.481180
769.559924	86.438924
769.976957	86.400746
770.393961	86.358850
770.810936	86.324615
771.227883	86.304963
771.644802	86.278737
772.061692	86.279475
772.478553	86.272778
772.895386	86.263004
773.312190	86.262992
773.728965	86.297757
774.145712	86.327155
774.562430	86.363373
774.979119	86.422313
775.395780	86.485210
775.812411	86.577627
776.229014	86.670357
776.645589	86.778064
777.062134	86.884440
777.478651	87.010375
777.895138	87.142986
778.311597	87.282017
778.728027	87.437790
779.144428	87.597511
779.560800	87.764122
779.977143	87.935591
780.393458	88.118128
780.809743	88.312093
781.225999	88.503020
781.642226	88.717657
782.058425	88.913227
782.474594	89.121610
782.890734	89.320385
783.306845	89.536619
783.722926	89.735343
784.138979	89.923078
784.555003	90.101551
784.970997	90.266884
785.386962	90.444052
785.802898	90.588876
786.218805	90.724943
786.634682	90.832878
787.050531	90.921156
787.466349	91.008813
787.882139	91.055327
788.297899	91.111071
788.713630	91.118637
789.129332	91.111814
789.545004	91.088915
789.960647	91.054816
790.376260	91.017783
790.791844	90.970711
791.207399	90.904217
791.622924	90.821944
792.038419	90.736983
792.453885	90.661303
792.869321	90.578237
793.284728	90.513885
793.700106	90.434423
794.115453	90.357762
794.530771	90.274004
794.946060	90.223912
795.361319	90.166125
795.776548	90.125912
796.191747	90.075125
796.606917	90.035491
797.022057	89.995184
797.437167	89.964041
797.852248	89.923425
798.267298	89.880168
798.682319	89.872416
799.097310	89.851945
799.512271	89.819087
799.927203	89.808138
800.342104	89.793413
800.756976	89.772742
801.171818	89.737575
801.586629	89.705016
802.001411	89.665244
802.416163	89.603775
802.830885	89.552494
803.245577	89.472854
803.660238	89.390521
804.074870	89.310666
804.489472	89.220120
804.904043	89.121424
805.318585	89.004897
805.733096	88.873397
806.147577	88.711882
806.562028	88.541910
806.976449	88.378291
807.390840	88.179596
807.805200	87.977163
808.219530	87.784269
808.633830	87.558639
809.048100	87.350891
809.462339	87.143025
809.876548	86.928725
810.290727	86.727738
810.704875	86.521781
811.118993	86.328980
811.533080	86.129841
811.947137	85.934624
812.361164	85.763183
812.775160	85.572465
813.189126	85.405179
813.603061	85.246168
814.016966	85.104485
814.430840	84.980232
814.844684	84.870159
815.258497	84.791479
815.672280	84.698698
816.086032	84.637989
816.499753	84.570127
816.913444	84.523719
817.327104	84.481388
817.740733	84.458430
818.154331	84.435927
818.567899	84.419503
818.981436	84.398967
819.394943	84.395548
819.808418	84.395455
820.221863	84.409699
820.635277	84.414772
821.048660	84.401175
821.462013	84.394364
821.875334	84.375355
822.288625	84.354797
822.701884	84.341431
823.115113	84.284122
823.528311	84.234281
823.941478	84.155674
824.354614	84.071896
824.767718	83.974710
825.180792	83.860387
825.593835	83.771897
826.006847	83.635491
826.419827	83.510425
826.832777	83.360105
827.245695	83.210260
827.658582	83.041210
828.071438	82.851282
828.484263	82.675976
828.897057	82.474862
829.309819	82.295920
829.722551	82.122105
830.135251	81.943903
830.547919	81.762470
830.960557	81.610073
831.373163	81.463397
831.785738	81.360371
832.198281	81.257621
832.610793	81.165931
833.023274	81.113296
833.435723	81.045311
833.848141	81.006265
834.260528	80.999771
834.672883	80.978863
835.085206	80.959416
835.497498	80.951577
835.909758	80.986950
836.321987	81.003836
836.734185	81.026490
837.146350	81.059866
837.558485	81.128082
837.970587	81.175926
838.382658	81.200160
838.794697	81.240143
839.206705	81.272206
839.618681	81.288551
840.030625	81.306353
840.442538	81.319017
840.854418	81.333644
841.266267	81.339620
841.678084	81.361217
842.089870	81.343652
842.501623	81.297974
842.913345	81.267761
843.325035	81.201478
843.736693	81.123915
844.148319	81.040144
844.559913	80.938921
844.971475	80.804345
845.383005	80.661122
845.794504	80.471671
846.205970	80.296048
846.617404	80.097376
847.028806	79.883857
847.440176	79.670496
847.851514	79.462217
848.262820	79.244277
848.674094	79.006044
849.085336	78.773748
849.496546	78.565963
849.907723	78.339500
850.318868	78.094700
850.729981	77.868946
851.141062	77.663903
851.552110	77.471959
851.963127	77.264745
852.374111	77.094853
852.785062	76.904698
853.195982	76.722284
853.606869	76.540902
854.017723	76.354922
854.428546	76.162281
854.839336	75.995191
855.250093	75.833468
855.660818	75.656473
856.071511	75.488182
856.482171	75.323545
856.892799	75.129739
857.303394	74.914363
857.713956	74.708186
858.124486	74.502756
858.534984	74.295301
858.945449	74.068601
859.355881	73.830526
859.766280	73.570986
860.176647	73.328172
860.586982	73.054906
860.997283	72.761796
861.407552	72.445064
861.817789	72.131873
862.227992	71.781183
862.638163	71.430703
863.048301	71.069319
863.458406	70.687162
863.868478	70.271325
864.278518	69.870304
864.688524	69.470874
865.098498	69.043975
865.508439	68.625535
865.918347	68.208050
866.328222	67.780253
866.738064	67.354533
867.147873	66.916298
867.557649	66.477261
867.967392	66.043923
868.377102	65.626007
868.786779	65.216642
869.196423	64.804690
869.606034	64.404774
870.015612	64.010783
870.425156	63.631252
870.834668	63.263244
871.244146	62.921255
871.653591	62.574949
872.063003	62.228190
872.472382	61.930446
872.881728	61.607940
873.291040	61.303854
873.700319	61.008699
874.109564	60.729184
874.518777	60.457664
874.927956	60.181375
875.337102	59.924622
875.746214	59.667469
876.155293	59.422727
876.564338	59.220969
876.973350	58.977203
877.382329	58.740462
877.791274	58.519091
878.200186	58.302034
878.609064	58.079748
879.017909	57.872305
879.426720	57.666814
879.835497	57.469815
880.244241	57.269794
880.652952	57.091446
881.061629	56.887997
881.470272	56.690166
881.878881	56.460682
882.287457	56.255692
882.695999	56.048167
883.104507	55.814182
883.512982	55.592736
883.921423	55.356002
884.329830	55.143544
884.738203	54.933744
885.146543	54.695627
885.554849	54.457174
885.963120	54.214574
886.371358	54.000204
886.779563	53.764568
887.187733	53.537137
887.595869	53.303112
888.003971	53.053131
888.412040	52.831407
888.820074	52.585259
889.228074	52.346173
889.636041	52.118147
890.043973	51.895434
890.451871	51.683438
890.859736	51.439070
891.267566	51.204366
891.675362	50.973942
892.083124	50.732992
892.490851	50.517606
892.898545	50.281907
893.306204	50.027472
893.713829	49.776838
894.121420	49.526834
894.528977	49.296526
894.936499	49.054909
895.343987	48.811457
895.751441	48.581315
896.158860	48.329250
896.566246	48.064473
896.973596	47.754382
897.380913	47.458887
897.788195	47.156818
898.195442	46.860216
898.602655	46.558664
899.009834	46.204268
899.416978	45.873244
899.824088	45.500125
900.231163	45.171352
900.638204	44.808357
901.045210	44.413477
901.452181	44.053731
901.859118	43.648784
902.266021	43.239397
902.672888	42.846870
903.079721	42.427056
903.486520	42.028110
903.893283	41.605933
904.300012	41.186941
904.706707	40.767120
905.113366	40.327088
905.519991	39.909879
905.926581	39.502922
906.333136	39.085504
906.739656	38.688110
907.146142	38.290814
907.552592	37.897102
907.959008	37.507529
908.365389	37.133740
908.771735	36.763859
909.178046	36.407871
909.584322	36.087801
909.990563	35.769569
910.396769	35.452786
910.802940	35.156906
911.209076	34.856878
911.615177	34.588781
912.021243	34.338223
912.427274	34.102264
912.833270	33.844544
913.239231	33.624745
913.645156	33.417240
914.051046	33.199527
914.456902	33.023328
914.862721	32.855140
915.268506	32.666862
915.674256	32.502198
916.079970	32.343421
916.485649	32.199840
916.891292	32.049087
917.296901	31.912266
917.702474	31.776252
918.108011	31.625737
918.513514	31.473360
918.918980	31.341017
919.324412	31.197637
919.729808	31.052118
920.135169	30.919638
920.540494	30.781572
920.945783	30.638161
921.351037	30.486776
921.756256	30.352112
922.161439	30.184484
922.566586	30.033065
922.971698	29.880588
923.376775	29.705539
923.781815	29.563205
924.186820	29.397769
924.591790	29.230595
924.996723	29.061601
925.401621	28.890477
925.806484	28.711150
926.211310	28.521434
926.616101	28.336709
927.020856	28.126739
927.425575	27.904513
927.830259	27.700660
928.234906	27.480025
928.639518	27.257286
929.044094	27.031683
929.448634	26.817632
929.853138	26.603811
930.257606	26.384664
930.662038	26.188856
931.066434	25.994846
931.470795	25.784693
931.875119	25.582846
932.279407	25.398266
932.683659	25.195243
933.087875	25.008412
933.492055	24.845248
933.896199	24.671531
934.300307	24.505459
934.704379	24.364942
935.108414	24.208254
935.512414	24.060378
935.916377	23.944265
936.320304	23.817673
936.724195	23.691655
937.128049	23.579096
937.531867	23.455609
937.935649	23.353732
938.339395	23.262900
938.743104	23.174723
939.146777	23.089526
939.550414	23.016984
939.954014	22.966290
940.357578	22.902194
940.761105	22.838024
941.164596	22.778241
941.568050	22.721099
941.971468	22.652314
942.374850	22.586176
942.778195	22.526123
943.181503	22.464961
943.584775	22.408191
943.988010	22.355011
944.391209	22.287213
944.794371	22.217562
945.197496	22.159925
945.600585	22.107289
946.003637	22.024142
946.406653	21.942113
946.809632	21.841894
947.212574	21.764884
947.615479	21.691616
948.018347	21.627291
948.421179	21.560494
948.823974	21.463641
949.226732	21.406802
949.629453	21.336523
950.032138	21.300912
950.434785	21.242301
950.837396	21.190512
951.239969	21.143784
951.642506	21.080553
952.045006	21.012123
952.447469	20.936435
952.849895	20.863349
953.252283	20.815002
953.654635	20.770557
954.056950	20.734676
954.459227	20.711673
954.861468	20.688670
955.263671	20.659413
955.665838	20.649372
956.067967	20.595116
956.470059	20.569964
956.872114	20.538906
957.274131	20.531766
957.676112	20.501101
958.078055	20.470460
958.479961	20.447595
958.881829	20.423139
959.283661	20.420503
959.685455	20.412511
960.087211	20.403698
960.488931	20.388289
960.890613	20.322966
961.292257	20.303259
961.693864	20.276261
962.095434	20.223846
962.496966	20.134420
962.898461	20.082386
963.299918	20.033889
963.701338	19.967123
964.102720	19.928839
964.504065	19.889190
964.905372	19.834265
965.306641	19.779204
965.707873	19.726616
966.109068	19.667409
966.510224	19.628051
966.911343	19.578842
967.312425	19.519196
967.713468	19.458189
968.114474	19.378062
968.515442	19.328395
968.916373	19.286582
969.317265	19.260490
969.718120	19.148803
970.118937	19.144355
970.519716	19.071484
970.920458	19.048484
971.321161	18.994898
971.721827	18.975371
972.122454	18.933725
972.523044	18.891564
972.923596	18.875641
973.324110	18.874631
973.724585	18.857698
974.125023	18.837474
974.525423	18.833750
974.925785	18.877540
975.326108	18.883118
975.726394	18.836453
976.126642	18.810320
976.526851	18.789529
976.927022	18.822264
977.327155	18.865069
977.727250	18.904339
978.127307	18.882621
978.527325	18.946725
978.927306	18.989004
979.327248	18.990076
979.727151	18.966841
980.127017	19.020382
980.526844	19.045023
980.926633	19.053530
981.326383	19.054136
981.726095	19.094655
982.125769	19.205140
982.525404	19.228285
982.925001	19.265782
983.324560	19.303483
983.724079	19.380706
984.123561	19.421483
984.523004	19.520620
984.922408	19.570633
985.321774	19.621028
985.721102	19.669735
986.120390	19.719157
986.519641	19.806994
986.918852	19.834359
987.318025	19.851326
987.717159	19.879353
988.116255	20.023399
988.515312	20.168546
988.914330	20.256816
989.313310	20.299463
989.712250	20.356647
990.111152	20.443149
990.510015	20.584323
990.908840	20.651855
991.307625	20.675411
991.706372	20.816688
992.105080	20.974405
992.503749	21.007696
992.902379	21.036869
993.300970	21.188140
993.699522	21.319313
994.098035	21.396401
994.496510	21.503312
994.894945	21.602077
995.293341	21.795175
995.691698	21.950630
996.090016	22.249011
996.488296	22.473757
996.886535	22.646837
997.284736	22.878270
997.682898	23.019847
998.081021	23.232697
998.479104	23.500355
998.877148	23.780296
999.275153	24.072655
999.673119	24.317555
1000.071046	24.710355
1000.468933	25.043672
1000.866781	25.309413
1001.264590	25.677026
1001.662359	25.837334
1002.060089	26.289962
1002.457780	26.600196
1002.855431	26.946634
1003.253043	27.378659
1003.650615	27.777601
1004.048148	28.107667
1004.445642	28.475980
1004.843096	28.940445
1005.240511	29.532736
1005.637886	29.881222
1006.035221	30.515138
1006.432517	31.240810
1006.829774	31.837003
1007.226991	32.390388
1007.624168	32.940792
1008.021306	33.379420
1008.418404	33.585522
1008.815462	33.920938
1009.212481	34.438706
1009.609460	34.984650
1010.006399	35.733103
1010.403298	36.182364
1010.800158	36.889473
1011.196978	37.402909
1011.593758	38.095749
1011.990498	39.168780
1012.387199	39.611827
1012.783860	40.241766
1013.180480	41.048716
1013.577061	41.713083
1013.973602	42.880837
1014.370103	43.518823
1014.766564	44.091540
1015.162985	44.621572
1015.559366	44.912903
1015.955708	45.390186
1016.352009	45.930632
1016.748270	46.656369
1017.144491	47.254335
1017.540671	47.694510
1017.936812	48.568951
1018.332913	48.794063
1018.728973	48.948800
1019.124994	49.235232
1019.520974	49.744898
1019.916914	50.373533
1020.312814	51.096455
