Time1=100ms:Average1=5:Objective=10X:Aperture=1: (11/21/2018 11:09:20 AM)
11/21/2018 11:09:20 AM
Reflectance
10X
Ap#: 1
Avg1: 5.000000
Avg2: 0.000000
Int.Time1:100.000000

350.166136	78.001542
350.601937	78.220187
351.037728	78.068124
351.473509	78.045082
351.909281	77.591634
352.345042	77.970600
352.780794	78.185723
353.216536	78.397141
353.652267	78.260870
354.087989	78.287524
354.523701	78.393550
354.959403	78.387458
355.395095	78.688859
355.830777	78.931811
356.266449	79.795814
356.702110	79.487179
357.137762	79.936857
357.573404	79.932356
358.009035	80.086004
358.444656	80.341002
358.880268	80.853909
359.315869	81.112828
359.751459	81.010578
360.187040	81.040165
360.622610	81.729083
361.058170	81.785383
361.493720	82.157976
361.929260	82.341393
362.364789	81.513469
362.800308	81.224322
363.235816	81.676795
363.671314	81.571927
364.106802	81.500873
364.542279	81.777186
364.977746	82.150959
365.413203	82.768245
365.848649	82.140275
366.284084	81.948571
366.719509	81.767843
367.154924	82.226101
367.590328	81.564131
368.025721	81.787469
368.461104	81.882498
368.896477	81.947573
369.331838	81.889844
369.767189	81.073131
370.202530	81.211069
370.637859	80.367974
371.073178	80.867011
371.508486	80.957209
371.943784	81.047609
372.379071	80.890105
372.814347	80.860368
373.249612	80.714431
373.684866	80.395920
374.120110	80.087018
374.555343	79.544765
374.990565	79.945636
375.425776	79.810884
375.860976	80.028214
376.296165	79.937557
376.731343	79.817617
377.166511	79.668342
377.601667	79.811831
378.036812	79.683113
378.471946	79.658308
378.907070	79.920239
379.342182	80.334395
379.777283	80.236839
380.212373	80.210505
380.647452	80.003956
381.082520	80.136310
381.517576	79.512724
381.952622	79.688121
382.387656	79.826399
382.822679	79.348151
383.257691	79.521569
383.692692	79.493822
384.127681	79.861876
384.562659	79.221295
384.997626	78.887346
385.432581	78.312303
385.867525	78.648037
386.302458	78.464401
386.737379	79.045846
387.172289	78.880407
387.607188	78.690754
388.042075	79.095331
388.476951	79.163017
388.911815	79.235557
389.346668	79.460722
389.781509	79.687347
390.216338	79.643940
390.651157	79.714955
391.085963	79.678305
391.520758	79.418673
391.955541	79.782332
392.390313	78.879268
392.825073	78.774319
393.259821	78.823760
393.694558	79.091267
394.129283	79.010656
394.563996	79.334381
394.998698	79.739465
395.433388	79.602941
395.868066	79.210091
396.302732	79.909277
396.737386	80.067140
397.172029	79.884500
397.606659	79.561726
398.041278	79.285921
398.475885	79.108835
398.910480	79.012346
399.345063	78.106844
399.779634	77.203164
400.214194	75.454504
400.648741	74.631335
401.083276	73.104429
401.517799	71.421799
401.952310	69.170605
402.386809	66.777046
402.821296	64.097897
403.255771	61.639732
403.690234	59.002916
404.124684	56.060154
404.559123	52.851770
404.993549	50.126892
405.427963	46.953395
405.862365	44.052125
406.296754	41.361195
406.731131	39.049355
407.165496	36.636869
407.599849	34.303436
408.034190	32.292928
408.468518	30.459966
408.902833	28.579802
409.337137	26.891845
409.771428	25.352604
410.205706	23.865339
410.639973	22.633332
411.074226	21.525031
411.508467	20.449844
411.942696	19.454074
412.376912	18.664135
412.811116	17.984476
413.245307	17.382928
413.679486	16.829951
414.113652	16.243097
414.547805	15.749933
414.981946	15.267287
415.416074	14.782739
415.850190	14.472367
416.284293	14.094072
416.718383	13.737453
417.152460	13.408969
417.586525	13.155542
418.020577	12.962290
418.454616	12.764433
418.888643	12.601262
419.322656	12.444243
419.756657	12.231659
420.190645	12.075243
420.624620	11.891234
421.058582	11.734372
421.492531	11.593677
421.926468	11.468423
422.360391	11.418417
422.794301	11.363833
423.228199	11.340860
423.662083	11.339013
424.095955	11.319817
424.529813	11.352089
424.963658	11.396169
425.397491	11.411929
425.831310	11.414642
426.265116	11.413092
426.698909	11.405770
427.132689	11.418316
427.566455	11.483804
428.000209	11.496911
428.433949	11.572655
428.867676	11.693205
429.301389	11.761292
429.735090	11.850598
430.168777	11.921824
430.602451	11.999752
431.036111	12.038854
431.469759	12.083918
431.903392	12.110843
432.337013	12.161007
432.770620	12.197473
433.204213	12.282749
433.637794	12.389837
434.071360	12.538625
434.504914	12.705881
434.938453	12.878261
435.371979	13.052439
435.805492	13.222646
436.238991	13.402111
436.672477	13.565503
437.105949	13.715797
437.539407	13.848495
437.972852	13.966154
438.406283	14.093857
438.839700	14.251236
439.273104	14.399861
439.706494	14.581489
440.139871	14.762063
440.573233	14.959487
441.006582	15.133398
441.439917	15.338310
441.873238	15.485805
442.306546	15.615008
442.739839	15.722647
443.173119	15.841273
443.606385	15.975022
444.039636	16.097051
444.472874	16.249329
444.906099	16.389406
445.339309	16.553044
445.772505	16.741307
446.205687	16.947161
446.638855	17.150506
447.072009	17.334345
447.505149	17.548498
447.938275	17.754198
448.371387	17.961534
448.804485	18.148484
449.237569	18.317068
449.670638	18.470791
450.103694	18.617134
450.536735	18.765894
450.969762	18.919992
451.402774	19.068913
451.835773	19.243394
452.268757	19.424938
452.701727	19.638070
453.134683	19.830712
453.567624	20.037901
454.000551	20.246473
454.433464	20.422134
454.866362	20.578929
455.299246	20.733939
455.732116	20.871413
456.164971	21.027111
456.597811	21.177750
457.030638	21.309315
457.463449	21.459111
457.896246	21.594768
458.329029	21.753810
458.761797	21.933548
459.194551	22.088316
459.627290	22.265696
460.060014	22.465080
460.492724	22.669621
460.925419	22.851529
461.358099	23.054391
461.790765	23.246661
462.223416	23.443590
462.656052	23.620725
463.088674	23.805947
463.521281	23.961113
463.953873	24.121687
464.386450	24.298905
464.819012	24.487077
465.251560	24.666039
465.684093	24.836196
466.116611	25.018482
466.549114	25.194640
466.981602	25.396169
467.414075	25.588832
467.846533	25.785132
468.278977	25.989476
468.711405	26.177746
469.143818	26.376303
469.576216	26.537260
470.008600	26.681420
470.440968	26.834839
470.873321	26.956858
471.305659	27.091407
471.737982	27.223413
472.170289	27.330088
472.602582	27.454026
473.034859	27.573403
473.467122	27.702490
473.899369	27.844816
474.331600	28.003202
474.763817	28.167451
475.196018	28.327338
475.628204	28.495207
476.060375	28.682043
476.492530	28.864115
476.924670	29.055914
477.356795	29.225900
477.788904	29.367773
478.220998	29.496020
478.653076	29.598032
479.085139	29.704738
479.517186	29.781982
479.949219	29.888123
480.381235	29.989421
480.813236	30.097784
481.245221	30.234827
481.677191	30.391640
482.109146	30.553161
482.541084	30.709129
482.973008	30.887634
483.404915	31.047168
483.836807	31.165016
484.268683	31.260366
484.700544	31.319995
485.132388	31.356500
485.564217	31.379657
485.996031	31.368168
486.427828	31.335406
486.859610	31.281843
487.291376	31.202526
487.723126	31.138147
488.154860	31.068499
488.586579	31.018998
489.018281	30.990356
489.449968	30.989475
489.881639	31.008861
490.313293	31.056448
490.744932	31.141688
491.176555	31.224960
491.608162	31.314721
492.039753	31.394979
492.471328	31.447834
492.902886	31.472480
493.334429	31.466793
493.765956	31.426834
494.197466	31.385528
494.628960	31.317615
495.060439	31.259485
495.491901	31.237126
495.923347	31.258342
496.354776	31.302477
496.786190	31.403985
497.217587	31.539035
497.648968	31.705093
498.080332	31.889288
498.511681	32.085573
498.943013	32.270828
499.374328	32.455206
499.805628	32.631623
500.236911	32.783949
500.668177	32.928929
501.099427	33.037739
501.530661	33.138512
501.961878	33.222426
502.393079	33.296305
502.824264	33.362703
503.255431	33.429514
503.686583	33.506817
504.117717	33.597635
504.548835	33.728298
504.979937	33.888177
505.411022	34.085541
505.842090	34.334649
506.273142	34.637465
506.704177	34.985922
507.135195	35.355922
507.566197	35.723390
507.997182	36.115148
508.428150	36.475195
508.859102	36.798104
509.290036	37.095250
509.720954	37.364885
510.151855	37.601006
510.582739	37.838382
511.013607	38.091054
511.444457	38.361315
511.875291	38.658901
512.306107	39.007768
512.736907	39.385394
513.167690	39.805051
513.598456	40.266470
514.029205	40.756533
514.459936	41.254639
514.890651	41.739967
515.321349	42.211777
515.752030	42.644605
516.182693	43.037186
516.613340	43.391590
517.043969	43.703356
517.474582	43.955469
517.905177	44.157060
518.335755	44.318389
518.766315	44.458611
519.196859	44.563257
519.627385	44.640509
520.057894	44.703531
520.488386	44.774701
520.918860	44.843244
521.349318	44.935171
521.779757	45.065297
522.210180	45.240125
522.640585	45.439741
523.070973	45.676363
523.501343	45.931680
523.931696	46.195981
524.362031	46.445689
524.792349	46.686024
525.222650	46.902007
525.652933	47.068141
526.083198	47.179155
526.513446	47.238562
526.943677	47.254846
527.373890	47.227262
527.804085	47.195716
528.234262	47.167766
528.664422	47.160558
529.094565	47.210609
529.524689	47.306630
529.954796	47.461951
530.384885	47.690001
530.814957	47.984786
531.245011	48.349256
531.675047	48.759863
532.105065	49.206072
532.535065	49.663952
532.965048	50.127499
533.395013	50.551419
533.824959	50.934896
534.254888	51.286105
534.684799	51.554560
535.114693	51.775063
535.544568	51.940877
535.974425	52.033369
536.404264	52.066580
536.834086	52.060969
537.263889	52.026955
537.693674	51.986987
538.123441	51.936693
538.553190	51.884576
538.982921	51.879808
539.412634	51.925169
539.842329	52.040062
540.272006	52.200944
540.701664	52.433006
541.131304	52.729364
541.560926	53.073651
541.990530	53.470849
542.420116	53.899936
542.849683	54.351576
543.279232	54.810862
543.708763	55.255149
544.138275	55.675623
544.567769	56.049658
544.997245	56.380719
545.426702	56.662469
545.856141	56.908475
546.285562	57.111047
546.714964	57.296565
547.144347	57.478636
547.573713	57.665359
548.003059	57.887150
548.432387	58.146722
548.861697	58.442854
549.290988	58.798663
549.720260	59.214440
550.149514	59.690704
550.578750	60.217957
551.007966	60.785055
551.437164	61.405140
551.866344	62.046869
552.295504	62.664046
552.724646	63.274779
553.153769	63.844854
553.582874	64.374764
554.011960	64.828844
554.441027	65.188245
554.870075	65.475458
555.299104	65.680720
555.728115	65.797104
556.157106	65.852639
556.586079	65.838021
557.015033	65.778208
557.443968	65.697372
557.872884	65.609731
558.301781	65.527259
558.730659	65.486144
559.159518	65.461341
559.588358	65.499775
560.017180	65.595442
560.445982	65.737257
560.874765	65.929048
561.303528	66.161151
561.732273	66.432243
562.160999	66.716434
562.589705	67.024890
563.018393	67.336332
563.447061	67.637722
563.875710	67.936531
564.304340	68.221656
564.732950	68.465164
565.161542	68.683098
565.590114	68.882401
566.018666	69.041974
566.447200	69.160771
566.875714	69.248793
567.304208	69.338401
567.732684	69.424810
568.161140	69.510938
568.589576	69.605747
569.017993	69.726059
569.446391	69.880091
569.874769	70.085384
570.303128	70.324290
570.731467	70.615184
571.159787	70.964439
571.588087	71.373586
572.016368	71.828941
572.444629	72.336119
572.872870	72.870069
573.301092	73.413624
573.729294	73.955053
574.157476	74.493015
574.585639	74.982586
575.013782	75.409708
575.441906	75.798353
575.870009	76.099445
576.298093	76.336298
576.726157	76.518633
577.154202	76.623785
577.582226	76.673540
578.010231	76.665908
578.438216	76.638018
578.866181	76.589005
579.294126	76.553369
579.722051	76.547284
580.149957	76.570956
580.577842	76.603912
581.005707	76.671785
581.433553	76.764219
581.861378	76.884989
582.289184	77.018001
582.716969	77.138370
583.144734	77.265952
583.572479	77.401836
584.000205	77.522692
584.427910	77.639412
584.855594	77.736670
585.283259	77.797444
585.710904	77.859510
586.138528	77.887015
586.566132	77.917252
586.993716	77.942218
587.421280	77.951205
587.848823	77.971252
588.276346	77.989181
588.703849	77.987353
589.131332	78.009154
589.558794	78.024620
589.986236	78.024090
590.413657	78.042462
590.841058	78.070985
591.268438	78.144764
591.695799	78.232908
592.123138	78.359508
592.550458	78.521541
592.977756	78.719512
593.405034	78.975306
593.832292	79.303125
594.259529	79.678658
594.686746	80.106875
595.113942	80.570618
595.541117	81.062077
595.968272	81.604756
596.395406	82.141464
596.822519	82.674362
597.249612	83.191669
597.676684	83.650797
598.103735	84.058847
598.530766	84.422763
598.957775	84.700313
599.384764	84.924571
599.811733	85.065533
600.238680	85.152051
600.665606	85.181620
601.092512	85.159554
601.519397	85.104015
601.946261	85.055152
602.373104	84.976318
602.799926	84.902319
603.226727	84.852823
603.653507	84.809917
604.080266	84.773402
604.507004	84.739247
604.933721	84.710009
605.360417	84.667520
605.787092	84.615940
606.213746	84.538410
606.640379	84.426568
607.066991	84.280981
607.493581	84.106835
607.920150	83.914187
608.346699	83.713805
608.773226	83.511113
609.199731	83.296859
609.626216	83.111640
610.052679	82.936872
610.479121	82.782796
610.905542	82.669499
611.331941	82.600720
611.758319	82.547520
612.184676	82.532877
612.611011	82.536453
613.037325	82.563767
613.463617	82.597556
613.889888	82.643241
614.316138	82.701692
614.742366	82.764425
615.168573	82.802631
615.594758	82.848288
616.020921	82.895049
616.447063	82.928729
616.873184	82.967358
617.299283	83.018425
617.725360	83.089252
618.151416	83.182172
618.577450	83.308576
619.003462	83.453850
619.429453	83.643665
619.855422	83.855530
620.281369	84.101191
620.707295	84.366417
621.133199	84.631411
621.559081	84.885391
621.984941	85.128143
622.410779	85.336940
622.836596	85.486862
623.262391	85.599132
623.688163	85.643044
624.113914	85.628685
624.539644	85.550316
624.965351	85.420673
625.391036	85.233526
625.816699	85.009771
626.242340	84.757943
626.667960	84.471639
627.093557	84.165079
627.519132	83.853765
627.944685	83.536000
628.370216	83.215256
628.795725	82.897828
629.221212	82.566054
629.646677	82.240826
630.072119	81.898313
630.497540	81.535428
630.922938	81.148908
631.348314	80.731707
631.773668	80.273893
632.198999	79.787743
632.624308	79.276058
633.049595	78.742984
633.474860	78.170555
633.900102	77.583742
634.325322	76.992485
634.750520	76.405457
635.175695	75.829885
635.600848	75.283856
636.025978	74.792896
636.451086	74.329304
636.876171	73.938562
637.301234	73.590599
637.726275	73.300871
638.151293	73.066199
638.576288	72.879267
639.001261	72.755272
639.426211	72.661722
639.851139	72.599966
640.276044	72.572041
640.700927	72.574892
641.125787	72.580804
641.550624	72.608593
641.975438	72.629346
642.400230	72.665495
642.824999	72.694150
643.249745	72.730073
643.674469	72.784142
644.099169	72.843007
644.523847	72.923075
644.948502	73.036789
645.373135	73.174194
645.797744	73.327694
646.222330	73.507616
646.646894	73.722361
647.071435	73.962266
647.495953	74.229632
647.920447	74.510229
648.344919	74.806446
648.769368	75.105963
649.193794	75.387300
649.618197	75.672788
650.042576	75.926815
650.466933	76.174998
650.891267	76.387154
651.315577	76.584474
651.739864	76.746144
652.164129	76.856944
652.588370	76.951565
653.012587	77.029389
653.436782	77.072828
653.860953	77.088723
654.285102	77.080471
654.709226	77.051558
655.133328	77.022389
655.557406	76.974987
655.981461	76.917953
656.405493	76.847319
656.829501	76.757147
657.253486	76.643364
657.677448	76.508600
658.101386	76.339549
658.525301	76.142755
658.949192	75.918901
659.373060	75.659922
659.796904	75.368479
660.220725	75.047071
660.644522	74.689962
661.068296	74.315151
661.492046	73.934121
661.915772	73.545420
662.339475	73.159343
662.763154	72.786478
663.186810	72.447588
663.610442	72.141578
664.034050	71.891727
664.457635	71.680972
664.881196	71.564396
665.304733	71.522304
665.728247	71.550122
666.151736	71.656795
666.575202	71.847938
666.998644	72.109708
667.422062	72.451261
667.845457	72.835740
668.268827	73.266388
668.692174	73.737946
669.115496	74.232581
669.538795	74.739258
669.962070	75.240836
670.385321	75.738338
670.808547	76.195102
671.231750	76.625085
671.654929	77.011535
672.078084	77.357809
672.501214	77.659226
672.924321	77.903539
673.347404	78.108070
673.770462	78.273410
674.193496	78.395473
674.616506	78.463656
675.039492	78.503669
675.462454	78.518526
675.885391	78.501906
676.308305	78.461746
676.731194	78.404449
677.154058	78.328606
677.576899	78.241255
677.999715	78.142940
678.422507	78.041964
678.845274	77.921581
679.268017	77.804808
679.690736	77.666808
680.113430	77.512331
680.536100	77.360887
680.958746	77.218012
681.381367	77.069760
681.803963	76.926502
682.226535	76.784934
682.649083	76.655548
683.071605	76.545048
683.494104	76.453082
683.916578	76.386838
684.339027	76.346666
684.761451	76.338646
685.183851	76.347611
685.606227	76.374146
686.028577	76.425029
686.450903	76.487791
686.873204	76.566537
687.295481	76.657419
687.717733	76.749832
688.139959	76.823441
688.562162	76.875600
688.984339	76.909193
689.406492	76.913240
689.828619	76.888935
690.250722	76.815890
690.672800	76.714085
691.094853	76.555324
691.516881	76.332951
691.938884	76.068400
692.360863	75.757334
692.782816	75.423000
693.204744	75.062985
693.626647	74.673439
694.048526	74.264675
694.470379	73.865293
694.892207	73.454078
695.314010	73.073985
695.735788	72.714719
696.157540	72.383438
696.579268	72.086207
697.000970	71.835379
697.422648	71.630311
697.844300	71.452471
698.265926	71.323033
698.687528	71.239609
699.109104	71.198989
699.530655	71.180671
699.952181	71.195671
700.373681	71.231890
700.795156	71.299678
701.216606	71.396663
701.638030	71.504498
702.059429	71.630852
702.480803	71.748763
702.902151	71.852285
703.323473	71.959995
703.744770	72.030659
704.166042	72.092743
704.587288	72.151792
705.008509	72.201285
705.429704	72.225133
705.850873	72.235165
706.272017	72.227066
706.693135	72.216050
707.114228	72.199829
707.535295	72.178680
707.956336	72.159782
708.377352	72.124503
708.798342	72.097667
709.219306	72.083353
709.640245	72.077724
710.061157	72.085625
710.482044	72.101265
710.902905	72.151322
711.323741	72.220414
711.744550	72.319287
712.165334	72.442690
712.586092	72.596881
713.006823	72.781429
713.427529	72.995498
713.848209	73.227461
714.268863	73.486696
714.689492	73.779516
715.110094	74.085585
715.530670	74.432706
715.951220	74.801427
716.371744	75.181872
716.792242	75.598047
717.212714	76.026979
717.633159	76.464330
718.053579	76.923380
718.473973	77.390303
718.894340	77.857795
719.314681	78.308002
719.734996	78.749170
720.155285	79.159473
720.575547	79.529994
720.995784	79.869959
721.415994	80.165552
721.836177	80.411169
722.256335	80.597423
722.676466	80.715117
723.096570	80.775014
723.516649	80.764564
723.936701	80.681626
724.356726	80.523956
724.776725	80.297562
725.196698	80.006044
725.616644	79.656511
726.036564	79.245227
726.456457	78.781570
726.876324	78.294901
727.296164	77.775153
727.715977	77.244214
728.135764	76.715669
728.555525	76.191510
728.975258	75.686614
729.394966	75.214809
729.814646	74.778033
730.234300	74.378422
730.653927	74.035021
731.073527	73.751939
731.493101	73.533944
731.912648	73.367436
732.332168	73.307583
732.751661	73.304873
733.171128	73.410525
733.590568	73.585558
734.009980	73.851981
734.429366	74.219361
734.848726	74.651204
735.268058	75.142675
735.687363	75.715935
736.106641	76.334772
736.525893	77.015520
736.945117	77.733191
737.364314	78.479847
737.783485	79.260062
738.202628	80.062587
738.621744	80.879075
739.040834	81.697336
739.459896	82.512533
739.878931	83.285114
740.297939	84.039732
740.716919	84.754014
741.135873	85.413448
741.554799	86.013407
741.973698	86.552485
742.392570	87.029581
742.811415	87.451950
743.230232	87.814144
743.649022	88.117599
744.067785	88.324863
744.486521	88.469789
744.905229	88.576052
745.323909	88.606675
745.742563	88.596205
746.161189	88.521527
746.579787	88.417908
746.998358	88.266776
747.416902	88.070413
747.835418	87.851779
748.253907	87.627462
748.672368	87.390198
749.090802	87.155735
749.509208	86.917024
749.927586	86.685467
750.345937	86.471201
750.764261	86.277107
751.182556	86.088759
751.600824	85.943780
752.019065	85.827684
752.437277	85.744400
752.855462	85.711683
753.273620	85.714479
753.691749	85.749075
754.109851	85.818215
754.527925	85.925359
754.945971	86.063499
755.363989	86.229747
755.781980	86.418162
756.199943	86.619395
756.617877	86.817141
757.035784	87.022077
757.453663	87.229826
757.871514	87.400581
758.289337	87.542213
758.707132	87.644717
759.124899	87.695760
759.542639	87.699967
759.960350	87.644271
760.378033	87.523468
760.795688	87.342671
761.213314	87.091841
761.630913	86.764766
762.048484	86.379132
762.466026	85.912966
762.883541	85.401427
763.301027	84.822731
763.718485	84.185230
764.135914	83.518142
764.553316	82.789446
764.970689	82.050356
765.388034	81.289244
765.805351	80.521101
766.222639	79.739115
766.639899	78.957613
767.057131	78.185449
767.474334	77.426110
767.891509	76.696390
768.308655	76.016660
768.725773	75.365545
769.142863	74.768140
769.559924	74.220819
769.976957	73.749849
770.393961	73.318577
770.810936	72.957922
771.227883	72.677108
771.644802	72.457237
772.061692	72.310317
772.478553	72.222649
772.895386	72.199260
773.312190	72.249343
773.728965	72.378523
774.145712	72.565864
774.562430	72.823514
774.979119	73.131451
775.395780	73.505263
775.812411	73.932768
776.229014	74.431891
776.645589	74.965888
777.062134	75.538928
777.478651	76.153250
777.895138	76.785505
778.311597	77.434594
778.728027	78.091840
779.144428	78.767963
779.560800	79.454038
779.977143	80.138245
780.393458	80.806317
780.809743	81.477556
781.225999	82.093167
781.642226	82.676665
782.058425	83.192830
782.474594	83.668981
782.890734	84.066286
783.306845	84.413069
783.722926	84.693579
784.138979	84.883794
784.555003	85.005978
784.970997	85.054880
785.386962	85.036212
785.802898	84.954105
786.218805	84.796711
786.634682	84.565544
787.050531	84.299121
787.466349	83.978888
787.882139	83.612923
788.297899	83.231050
788.713630	82.821810
789.129332	82.385012
789.545004	81.961749
789.960647	81.543292
790.376260	81.128388
790.791844	80.730809
791.207399	80.360491
791.622924	80.009157
792.038419	79.701211
792.453885	79.436753
792.869321	79.221101
793.284728	79.049795
793.700106	78.922684
794.115453	78.843206
794.530771	78.813667
794.946060	78.852402
795.361319	78.923940
795.776548	79.049554
796.191747	79.190405
796.606917	79.349301
797.022057	79.538102
797.437167	79.744269
797.852248	79.947362
798.267298	80.149459
798.682319	80.317087
799.097310	80.492098
799.512271	80.646118
799.927203	80.757201
800.342104	80.824193
800.756976	80.862609
801.171818	80.837431
801.586629	80.767487
802.001411	80.646003
802.416163	80.468348
802.830885	80.233138
803.245577	79.974618
803.660238	79.641999
804.074870	79.286302
804.489472	78.890436
804.904043	78.425401
805.318585	77.915227
805.733096	77.364824
806.147577	76.805711
806.562028	76.208679
806.976449	75.585550
807.390840	74.943105
807.805200	74.266179
808.219530	73.594998
808.633830	72.928656
809.048100	72.268595
809.462339	71.632481
809.876548	71.004206
810.290727	70.377184
810.704875	69.790206
811.118993	69.229009
811.533080	68.722604
811.947137	68.243569
812.361164	67.798035
812.775160	67.409323
813.189126	67.068318
813.603061	66.779847
814.016966	66.540314
814.430840	66.346177
814.844684	66.224478
815.258497	66.161817
815.672280	66.147130
816.086032	66.188171
816.499753	66.312666
816.913444	66.487659
817.327104	66.725870
817.740733	67.033390
818.154331	67.385560
818.567899	67.801105
818.981436	68.267331
819.394943	68.792143
819.808418	69.360164
820.221863	69.978679
820.635277	70.648727
821.048660	71.360487
821.462013	72.092708
821.875334	72.859870
822.288625	73.629957
822.701884	74.448958
823.115113	75.269608
823.528311	76.089346
823.941478	76.906992
824.354614	77.714213
824.767718	78.484151
825.180792	79.233148
825.593835	79.915446
826.006847	80.551337
826.419827	81.121982
826.832777	81.635205
827.245695	82.090636
827.658582	82.442604
828.071438	82.699929
828.484263	82.882261
828.897057	82.950901
829.309819	82.901384
829.722551	82.751289
830.135251	82.507281
830.547919	82.168340
830.960557	81.738827
831.373163	81.221232
831.785738	80.616850
832.198281	79.949251
832.610793	79.252663
833.023274	78.506450
833.435723	77.746404
833.848141	76.946999
834.260528	76.125307
834.672883	75.321054
835.085206	74.547327
835.497498	73.759898
835.909758	73.022322
836.321987	72.320489
836.734185	71.673033
837.146350	71.074240
837.558485	70.547958
837.970587	70.073255
838.382658	69.656727
838.794697	69.318272
839.206705	69.051339
839.618681	68.873967
840.030625	68.761439
840.442538	68.713160
840.854418	68.723878
841.266267	68.810065
841.678084	68.973790
842.089870	69.200635
842.501623	69.488267
842.913345	69.822331
843.325035	70.203467
843.736693	70.643242
844.148319	71.124689
844.559913	71.636853
844.971475	72.163453
845.383005	72.698235
845.794504	73.226417
846.205970	73.759623
846.617404	74.270840
847.028806	74.786445
847.440176	75.264916
847.851514	75.724123
848.262820	76.136818
848.674094	76.520793
849.085336	76.854384
849.496546	77.107740
849.907723	77.322931
850.318868	77.483902
850.729981	77.572643
851.141062	77.653343
851.552110	77.630676
851.963127	77.550049
852.374111	77.411667
852.785062	77.180865
853.195982	76.894636
853.606869	76.542399
854.017723	76.156885
854.428546	75.707941
854.839336	75.210648
855.250093	74.671071
855.660818	74.110282
856.071511	73.507934
856.482171	72.852469
856.892799	72.152161
857.303394	71.439389
857.713956	70.705613
858.124486	69.972718
858.534984	69.260009
858.945449	68.513587
859.355881	67.773915
859.766280	67.046306
860.176647	66.328173
860.586982	65.601240
860.997283	64.916597
861.407552	64.242807
861.817789	63.606291
862.227992	62.995895
862.638163	62.412099
863.048301	61.855978
863.458406	61.337798
863.868478	60.823095
864.278518	60.364927
864.688524	59.956262
865.098498	59.553888
865.508439	59.235723
865.918347	58.959937
866.328222	58.734566
866.738064	58.555651
867.147873	58.432220
867.557649	58.375057
867.967392	58.364596
868.377102	58.402228
868.786779	58.483844
869.196423	58.660049
869.606034	58.877745
870.015612	59.151601
870.425156	59.473055
870.834668	59.830546
871.244146	60.227058
871.653591	60.660758
872.063003	61.181654
872.472382	61.701667
872.881728	62.260110
873.291040	62.862222
873.700319	63.460662
874.109564	64.097511
874.518777	64.712796
874.927956	65.359892
875.337102	65.989336
875.746214	66.609204
876.155293	67.223844
876.564338	67.798730
876.973350	68.380449
877.382329	68.914739
877.791274	69.421047
878.200186	69.877139
878.609064	70.270303
879.017909	70.636630
879.426720	70.924932
879.835497	71.129281
880.244241	71.259521
880.652952	71.336115
881.061629	71.386381
881.470272	71.347503
881.878881	71.205054
882.287457	71.034677
882.695999	70.782647
883.104507	70.463865
883.512982	70.111484
883.921423	69.689012
884.329830	69.256346
884.738203	68.711971
885.146543	68.176914
885.554849	67.613051
885.963120	67.006992
886.371358	66.390324
886.779563	65.761072
887.187733	65.131921
887.595869	64.467425
888.003971	63.828154
888.412040	63.204141
888.820074	62.590143
889.228074	62.032812
889.636041	61.457877
890.043973	60.912497
890.451871	60.423276
890.859736	59.948237
891.267566	59.537565
891.675362	59.154466
892.083124	58.778885
892.490851	58.470511
892.898545	58.219511
893.306204	57.970128
893.713829	57.752543
894.121420	57.576038
894.528977	57.440254
894.936499	57.341498
895.343987	57.301249
895.751441	57.305506
896.158860	57.314496
896.566246	57.396955
896.973596	57.475806
897.380913	57.615938
897.788195	57.750407
898.195442	57.889367
898.602655	58.042306
899.009834	58.223162
899.416978	58.400048
899.824088	58.590585
900.231163	58.794328
900.638204	58.999544
901.045210	59.171949
901.452181	59.335386
901.859118	59.474197
902.266021	59.616868
902.672888	59.731410
903.079721	59.805269
903.486520	59.836491
903.893283	59.863184
904.300012	59.875332
904.706707	59.906711
905.113366	59.873217
905.519991	59.793389
905.926581	59.731901
906.333136	59.619800
906.739656	59.485172
907.146142	59.335463
907.552592	59.177932
907.959008	58.994829
908.365389	58.758057
908.771735	58.512281
909.178046	58.235323
909.584322	57.973895
909.990563	57.644846
910.396769	57.350255
910.802940	57.045661
911.209076	56.745483
911.615177	56.385938
912.021243	56.017928
912.427274	55.647749
912.833270	55.293141
913.239231	54.946162
913.645156	54.569589
914.051046	54.184452
914.456902	53.816919
914.862721	53.470730
915.268506	53.122348
915.674256	52.779255
916.079970	52.464101
916.485649	52.102838
916.891292	51.736445
917.296901	51.380643
917.702474	51.034516
918.108011	50.728078
918.513514	50.383849
918.918980	50.096869
919.324412	49.807157
919.729808	49.537107
920.135169	49.249091
920.540494	49.003892
920.945783	48.781368
921.351037	48.570513
921.756256	48.387677
922.161439	48.210188
922.566586	48.088308
922.971698	47.958083
923.376775	47.826538
923.781815	47.733892
924.186820	47.699226
924.591790	47.661459
924.996723	47.656185
925.401621	47.657601
925.806484	47.676337
926.211310	47.742860
926.616101	47.873292
927.020856	47.993278
927.425575	48.101009
927.830259	48.256515
928.234906	48.396448
928.639518	48.553032
929.044094	48.763514
929.448634	48.989887
929.853138	49.188598
930.257606	49.415334
930.662038	49.615001
931.066434	49.857965
931.470795	50.030724
931.875119	50.246540
932.279407	50.421642
932.683659	50.637078
933.087875	50.776623
933.492055	50.931946
933.896199	51.073143
934.300307	51.174967
934.704379	51.250636
935.108414	51.315178
935.512414	51.334609
935.916377	51.372823
936.320304	51.321279
936.724195	51.246886
937.128049	51.168815
937.531867	51.049885
937.935649	50.918882
938.339395	50.728527
938.743104	50.512156
939.146777	50.215876
939.550414	49.919417
939.954014	49.600134
940.357578	49.225823
940.761105	48.865741
941.164596	48.475302
941.568050	48.051305
941.971468	47.609607
942.374850	47.179111
942.778195	46.740862
943.181503	46.291710
943.584775	45.848461
943.988010	45.431973
944.391209	45.013829
944.794371	44.629011
945.197496	44.192533
945.600585	43.814042
946.003637	43.451807
946.406653	43.075525
946.809632	42.744288
947.212574	42.413307
947.615479	42.119890
948.018347	41.858170
948.421179	41.619491
948.823974	41.421088
949.226732	41.223533
949.629453	41.092522
950.032138	40.951535
950.434785	40.838302
950.837396	40.751017
951.239969	40.703665
951.642506	40.703387
952.045006	40.692839
952.447469	40.697743
952.849895	40.738001
953.252283	40.828443
953.654635	40.878743
954.056950	40.953519
954.459227	41.051267
954.861468	41.142380
955.263671	41.261602
955.665838	41.373311
956.067967	41.503991
956.470059	41.605354
956.872114	41.693657
957.274131	41.787967
957.676112	41.926252
958.078055	42.014098
958.479961	42.108744
958.881829	42.172833
959.283661	42.220911
959.685455	42.320859
960.087211	42.360616
960.488931	42.378047
960.890613	42.406927
961.292257	42.403264
961.693864	42.408820
962.095434	42.343933
962.496966	42.319495
962.898461	42.225364
963.299918	42.121551
963.701338	42.005562
964.102720	41.868542
964.504065	41.752155
964.905372	41.585025
965.306641	41.460502
965.707873	41.222034
966.109068	41.082387
966.510224	40.944442
966.911343	40.731400
967.312425	40.526775
967.713468	40.326522
968.114474	40.149413
968.515442	39.929418
968.916373	39.711308
969.317265	39.516585
969.718120	39.346315
970.118937	39.102106
970.519716	38.894324
970.920458	38.697796
971.321161	38.511011
971.721827	38.319838
972.122454	38.109385
972.523044	37.881823
972.923596	37.706161
973.324110	37.500282
973.724585	37.311894
974.125023	37.111111
974.525423	36.932077
974.925785	36.762327
975.326108	36.656151
975.726394	36.539188
976.126642	36.378477
976.526851	36.252610
976.927022	36.111778
977.327155	36.037049
977.727250	35.920146
978.127307	35.857681
978.527325	35.741546
978.927306	35.514392
979.327248	35.396891
979.727151	35.305661
980.127017	35.238328
980.526844	35.117323
980.926633	35.015258
981.326383	34.932285
981.726095	34.826612
982.125769	34.655510
982.525404	34.538721
982.925001	34.479926
983.324560	34.329743
983.724079	34.254468
984.123561	34.184440
984.523004	34.097929
984.922408	34.075792
985.321774	33.988621
985.721102	33.919652
986.120390	33.915467
986.519641	33.879586
986.918852	33.824482
987.318025	33.837453
987.717159	33.784164
988.116255	33.726249
988.515312	33.770818
988.914330	33.695213
989.313310	33.626313
989.712250	33.640704
990.111152	33.700226
990.510015	33.637912
990.908840	33.720347
991.307625	33.828920
991.706372	33.915417
992.105080	34.028734
992.503749	34.004028
992.902379	34.020291
993.300970	34.124555
993.699522	34.112698
994.098035	34.214846
994.496510	34.358428
994.894945	34.326196
995.293341	34.405648
995.691698	34.515881
996.090016	34.664177
996.488296	34.660556
996.886535	34.769667
997.284736	34.824691
997.682898	34.955785
998.081021	35.013465
998.479104	35.059937
998.877148	35.074726
999.275153	35.243756
999.673119	35.311548
1000.071046	35.301515
1000.468933	35.342883
1000.866781	35.303462
1001.264590	35.414110
1001.662359	35.487816
1002.060089	35.385406
1002.457780	35.331013
1002.855431	35.571078
1003.253043	35.315538
1003.650615	35.452022
1004.048148	35.497352
1004.445642	35.529716
1004.843096	35.764413
1005.240511	35.891779
1005.637886	35.881045
1006.035221	36.262886
1006.432517	36.336236
1006.829774	36.413698
1007.226991	36.807760
1007.624168	36.816822
1008.021306	36.950581
1008.418404	36.940156
1008.815462	37.063142
1009.212481	36.916193
1009.609460	37.214706
1010.006399	37.413628
1010.403298	37.646930
1010.800158	37.958307
1011.196978	38.453926
1011.593758	38.781647
1011.990498	38.957017
1012.387199	39.581868
1012.783860	39.879852
1013.180480	40.423497
1013.577061	41.165294
1013.973602	41.798211
1014.370103	42.568326
1014.766564	42.901186
1015.162985	43.164747
1015.559366	43.902439
1015.955708	44.302021
1016.352009	44.508213
1016.748270	44.669465
1017.144491	44.782123
1017.540671	44.877875
1017.936812	45.329288
1018.332913	45.370121
1018.728973	45.693262
1019.124994	46.074507
1019.520974	46.465317
1019.916914	47.091462
1020.312814	47.531348
