PE UV       SUBTECH     SPECTRUM    ASCII       PEDS        4.00        
   -1
CICIMAUCR0018-5.Sample.ASC
24/04/25
10:17:18.00
24/04/25
10:17:18.00
Vinicio Soto Monge
C. cupreomarginata
250,000000
1
Lambda 1050
1050L1511233
PerkinElmer UV WinLab 6.3.2.0749 / 2.02.05 Lambda 900 UV/VIS/NIR, Aug  7 2015 09:38:08

0
0
3350/servo 860,8/2
0
0
UV/VIS
1
1
1
DoubleDePol,CommonBeamDepol,RBeamAtt,SBeamAtt,60mm sphere, WB InGaAs Detector
0
0
0
0
Program
Program
3350/servo 860,8/2
3350/0,2 860,8/0,2
3350/0,2 860,8/0,2
0
15.00
 
 
 
0
 
860,8
319,2
860,8
Front
100
on
S:100 R:100
0
0
0
0
 
0
 
 
 
0
 
 
0
0
0
0
0
 
 
 
 
0
0


0
0
#HDR
-1
-1
#GR
nm
%R
1.0
0.0
2500,000000
-1,000000
2251
8
70,377300
5,315300
#DATA
2482.000000	8.366986
2481.000000	8.396520
2480.000000	8.312254
2479.000000	8.303347
2478.000000	8.278500
2477.000000	8.378237
2476.000000	8.303933
2475.000000	8.340850
2474.000000	8.388785
2473.000000	8.312605
2472.000000	8.316824
2471.000000	8.329599
2470.000000	8.359368
2469.000000	8.332881
2468.000000	8.360305
2467.000000	8.366751
2466.000000	8.325966
2465.000000	8.377299
2464.000000	8.432032
2463.000000	8.444103
2462.000000	8.477856
2461.000000	8.497898
2460.000000	8.572202
2459.000000	8.571968
2458.000000	8.599041
2457.000000	8.652249
2456.000000	8.698543
2455.000000	8.755268
2454.000000	8.811875
2453.000000	8.871881
2452.000000	8.930481
2451.000000	8.986619
2450.000000	9.032679
2449.000000	9.090692
2448.000000	9.143198
2447.000000	9.241294
2446.000000	9.280673
2445.000000	9.316653
2444.000000	9.409592
2443.000000	9.462449
2442.000000	9.538160
2441.000000	9.578945
2440.000000	9.655125
2439.000000	9.707865
2438.000000	9.773145
2437.000000	9.811235
2436.000000	9.864912
2435.000000	9.907573
2434.000000	9.973790
2433.000000	10.029812
2432.000000	10.069425
2431.000000	10.100483
2430.000000	10.149003
2429.000000	10.171740
2428.000000	10.229051
2427.000000	10.285658
2426.000000	10.320935
2425.000000	10.343086
2424.000000	10.363127
2423.000000	10.380355
2422.000000	10.420086
2421.000000	10.464973
2420.000000	10.496851
2419.000000	10.498727
2418.000000	10.531894
2417.000000	10.560256
2416.000000	10.582290
2415.000000	10.608308
2414.000000	10.633740
2413.000000	10.670189
2412.000000	10.718827
2411.000000	10.812001
2410.000000	10.883727
2409.000000	10.978072
2408.000000	11.040071
2407.000000	11.067144
2406.000000	11.074293
2405.000000	11.111680
2404.000000	11.151410
2403.000000	11.214698
2402.000000	11.268493
2401.000000	11.276462
2400.000000	11.309278
2399.000000	11.351704
2398.000000	11.410304
2397.000000	11.449800
2396.000000	11.481678
2395.000000	11.515901
2394.000000	11.543091
2393.000000	11.600519
2392.000000	11.621614
2391.000000	11.637788
2390.000000	11.676581
2389.000000	11.705646
2388.000000	11.712678
2387.000000	11.750768
2386.000000	11.774091
2385.000000	11.784756
2384.000000	11.796828
2383.000000	11.789679
2382.000000	11.804563
2381.000000	11.826831
2380.000000	11.823198
2379.000000	11.824252
2378.000000	11.831284
2377.000000	11.834214
2376.000000	11.811946
2375.000000	11.822963
2374.000000	11.834683
2373.000000	11.819564
2372.000000	11.801633
2371.000000	11.792960
2370.000000	11.791436
2369.000000	11.757683
2368.000000	11.733423
2367.000000	11.724633
2366.000000	11.682910
2365.000000	11.631342
2364.000000	11.609074
2363.000000	11.575438
2362.000000	11.530785
2361.000000	11.520589
2360.000000	11.491054
2359.000000	11.442534
2358.000000	11.398115
2357.000000	11.385106
2356.000000	11.386864
2355.000000	11.369284
2354.000000	11.372683
2353.000000	11.378894
2352.000000	11.397295
2351.000000	11.410655
2350.000000	11.443237
2349.000000	11.497852
2348.000000	11.530551
2347.000000	11.586103
2346.000000	11.633686
2345.000000	11.668611
2344.000000	11.737173
2343.000000	11.795187
2342.000000	11.814173
2341.000000	11.873359
2340.000000	11.941686
2339.000000	11.971455
2338.000000	11.991144
2337.000000	11.972861
2336.000000	11.989504
2335.000000	12.010717
2334.000000	12.030523
2333.000000	12.006380
2332.000000	11.973916
2331.000000	11.977784
2330.000000	11.982706
2329.000000	11.938873
2328.000000	11.881914
2327.000000	11.828003
2326.000000	11.810892
2325.000000	11.783936
2324.000000	11.709983
2323.000000	11.644468
2322.000000	11.565007
2321.000000	11.504532
2320.000000	11.421555
2319.000000	11.338812
2318.000000	11.292987
2317.000000	11.164419
2316.000000	11.059174
2315.000000	10.991902
2314.000000	10.900017
2313.000000	10.823369
2312.000000	10.771801
2311.000000	10.729258
2310.000000	10.671479
2309.000000	10.639014
2308.000000	10.621903
2307.000000	10.599167
2306.000000	10.604909
2305.000000	10.650500
2304.000000	10.669017
2303.000000	10.718124
2302.000000	10.807313
2301.000000	10.880680
2300.000000	10.952171
2299.000000	11.065972
2298.000000	11.187977
2297.000000	11.234974
2296.000000	11.334241
2295.000000	11.430579
2294.000000	11.476639
2293.000000	11.530785
2292.000000	11.604503
2291.000000	11.636030
2290.000000	11.665916
2289.000000	11.697677
2288.000000	11.705646
2287.000000	11.734360
2286.000000	11.710920
2285.000000	11.679394
2284.000000	11.677870
2283.000000	11.636968
2282.000000	11.601105
2281.000000	11.554459
2280.000000	11.542153
2279.000000	11.516487
2278.000000	11.449214
2277.000000	11.428939
2276.000000	11.418156
2275.000000	11.384637
2274.000000	11.381238
2273.000000	11.392490
2272.000000	11.377254
2271.000000	11.421438
2270.000000	11.433978
2269.000000	11.509103
2268.000000	11.591729
2267.000000	11.666502
2266.000000	11.802922
2265.000000	11.903714
2264.000000	12.055135
2263.000000	12.199994
2262.000000	12.404976
2261.000000	12.603277
2260.000000	12.836504
2259.000000	13.070317
2258.000000	13.294871
2257.000000	13.516378
2256.000000	13.804923
2255.000000	14.036978
2254.000000	14.243015
2253.000000	14.496517
2252.000000	14.682512
2251.000000	14.933437
2250.000000	15.116033
2249.000000	15.303084
2248.000000	15.482399
2247.000000	15.676833
2246.000000	15.794852
2245.000000	15.963620
2244.000000	16.083163
2243.000000	16.209387
2242.000000	16.343111
2241.000000	16.445661
2240.000000	16.556649
2239.000000	16.645017
2238.000000	16.737370
2237.000000	16.794095
2236.000000	16.890433
2235.000000	16.925476
2234.000000	16.998022
2233.000000	17.044667
2232.000000	17.114870
2231.000000	17.134677
2230.000000	17.154952
2229.000000	17.197613
2228.000000	17.178861
2227.000000	17.195855
2226.000000	17.196558
2225.000000	17.191284
2224.000000	17.195269
2223.000000	17.198316
2222.000000	17.171243
2221.000000	17.148037
2220.000000	17.136552
2219.000000	17.115456
2218.000000	17.082406
2217.000000	17.034705
2216.000000	17.019469
2215.000000	16.994037
2214.000000	16.964972
2213.000000	16.974465
2212.000000	16.900512
2211.000000	16.878830
2210.000000	16.863946
2209.000000	16.851054
2208.000000	16.868048
2207.000000	16.851054
2206.000000	16.819176
2205.000000	16.795384
2204.000000	16.770538
2203.000000	16.774640
2202.000000	16.753778
2201.000000	16.731510
2200.000000	16.728346
2199.000000	16.727877
2198.000000	16.724127
2197.000000	16.715454
2196.000000	16.699163
2195.000000	16.705609
2194.000000	16.710766
2193.000000	16.691428
2192.000000	16.685217
2191.000000	16.670098
2190.000000	16.641618
2189.000000	16.650643
2188.000000	16.635993
2187.000000	16.611967
2186.000000	16.619585
2185.000000	16.612319
2184.000000	16.593332
2183.000000	16.593332
2182.000000	16.572471
2181.000000	16.514223
2180.000000	16.530279
2179.000000	16.520083
2178.000000	16.513285
2177.000000	16.504495
2176.000000	16.488908
2175.000000	16.491955
2174.000000	16.496291
2173.000000	16.495705
2172.000000	16.501331
2171.000000	16.486329
2170.000000	16.472734
2169.000000	16.490548
2168.000000	16.526880
2167.000000	16.520669
2166.000000	16.551023
2165.000000	16.563681
2164.000000	16.602122
2163.000000	16.628961
2162.000000	16.636227
2161.000000	16.665996
2160.000000	16.705961
2159.000000	16.718384
2158.000000	16.725064
2157.000000	16.766084
2156.000000	16.812847
2155.000000	16.848593
2154.000000	16.902270
2153.000000	16.954189
2152.000000	17.005992
2151.000000	17.058731
2150.000000	17.089906
2149.000000	17.112409
2148.000000	17.154014
2147.000000	17.181322
2146.000000	17.231835
2145.000000	17.268401
2144.000000	17.313289
2143.000000	17.355129
2142.000000	17.390171
2141.000000	17.423222
2140.000000	17.439044
2139.000000	17.497526
2138.000000	17.547219
2137.000000	17.566205
2136.000000	17.586832
2135.000000	17.609920
2134.000000	17.641681
2133.000000	17.676021
2132.000000	17.699461
2131.000000	17.695828
2130.000000	17.711884
2129.000000	17.747747
2128.000000	17.746340
2127.000000	17.744934
2126.000000	17.748098
2125.000000	17.751146
2124.000000	17.738137
2123.000000	17.748450
2122.000000	17.742473
2121.000000	17.736027
2120.000000	17.732159
2119.000000	17.697820
2118.000000	17.693249
2117.000000	17.688561
2116.000000	17.660785
2115.000000	17.656800
2114.000000	17.638165
2113.000000	17.613553
2112.000000	17.606639
2111.000000	17.586363
2110.000000	17.556243
2109.000000	17.520732
2108.000000	17.499753
2107.000000	17.483462
2106.000000	17.462952
2105.000000	17.434121
2104.000000	17.406696
2103.000000	17.379506
2102.000000	17.349738
2101.000000	17.336494
2100.000000	17.325477
2099.000000	17.293130
2098.000000	17.249298
2097.000000	17.253282
2096.000000	17.234296
2095.000000	17.189643
2094.000000	17.185307
2093.000000	17.180267
2092.000000	17.150264
2091.000000	17.138193
2090.000000	17.128348
2089.000000	17.103384
2088.000000	17.096118
2087.000000	17.071975
2086.000000	17.041503
2085.000000	17.030369
2084.000000	16.995326
2083.000000	16.954307
2082.000000	16.932390
2081.000000	16.906958
2080.000000	16.858672
2079.000000	16.842498
2078.000000	16.810972
2077.000000	16.754130
2076.000000	16.729401
2075.000000	16.683459
2074.000000	16.654510
2073.000000	16.632594
2072.000000	16.564150
2071.000000	16.511879
2070.000000	16.479297
2069.000000	16.437574
2068.000000	16.395851
2067.000000	16.346159
2066.000000	16.298810
2065.000000	16.258493
2064.000000	16.208098
2063.000000	16.170945
2062.000000	16.123128
2061.000000	16.082811
2060.000000	16.059840
2059.000000	16.064880
2058.000000	16.057145
2057.000000	16.060192
2056.000000	16.071209
2055.000000	16.071560
2054.000000	16.083866
2053.000000	16.121956
2052.000000	16.185009
2051.000000	16.227084
2050.000000	16.275722
2049.000000	16.347331
2048.000000	16.428315
2047.000000	16.535084
2046.000000	16.620523
2045.000000	16.714165
2044.000000	16.803002
2043.000000	16.898871
2042.000000	17.004937
2041.000000	17.115690
2040.000000	17.219060
2039.000000	17.292896
2038.000000	17.398141
2037.000000	17.469164
2036.000000	17.524599
2035.000000	17.618007
2034.000000	17.702273
2033.000000	17.762866
2032.000000	17.825333
2031.000000	17.877252
2030.000000	17.930812
2029.000000	17.996210
2028.000000	18.034182
2027.000000	18.097001
2026.000000	18.126887
2025.000000	18.157593
2024.000000	18.188300
2023.000000	18.228616
2022.000000	18.267526
2021.000000	18.290498
2020.000000	18.319563
2019.000000	18.333744
2018.000000	18.356598
2017.000000	18.389765
2016.000000	18.399845
2015.000000	18.379686
2014.000000	18.393047
2013.000000	18.403712
2012.000000	18.395039
2011.000000	18.400782
2010.000000	18.386249
2009.000000	18.352496
2008.000000	18.326947
2007.000000	18.310890
2006.000000	18.315578
2005.000000	18.289677
2004.000000	18.245610
2003.000000	18.208809
2002.000000	18.158414
2001.000000	18.130520
2000.000000	18.056919
1999.000000	18.005586
1998.000000	17.974411
1997.000000	17.929992
1996.000000	17.867642
1995.000000	17.805878
1994.000000	17.741770
1993.000000	17.681295
1992.000000	17.611327
1991.000000	17.543820
1990.000000	17.474789
1989.000000	17.401422
1988.000000	17.322313
1987.000000	17.257267
1986.000000	17.162687
1985.000000	17.098579
1984.000000	17.024157
1983.000000	16.960518
1982.000000	16.869806
1981.000000	16.804057
1980.000000	16.701156
1979.000000	16.635055
1978.000000	16.538952
1977.000000	16.466757
1976.000000	16.403469
1975.000000	16.343815
1974.000000	16.269276
1973.000000	16.200363
1972.000000	16.112932
1971.000000	16.059958
1970.000000	15.976394
1969.000000	15.912286
1968.000000	15.835989
1967.000000	15.766607
1966.000000	15.705898
1965.000000	15.645306
1964.000000	15.592449
1963.000000	15.522715
1962.000000	15.456849
1961.000000	15.393327
1960.000000	15.316093
1959.000000	15.241437
1958.000000	15.203230
1957.000000	15.171351
1956.000000	15.089077
1955.000000	15.025555
1954.000000	14.959338
1953.000000	14.910231
1952.000000	14.851514
1951.000000	14.817175
1950.000000	14.741112
1949.000000	14.690365
1948.000000	14.675363
1947.000000	14.635750
1946.000000	14.603637
1945.000000	14.556757
1944.000000	14.536130
1943.000000	14.529450
1942.000000	14.496986
1941.000000	14.493118
1940.000000	14.485383
1939.000000	14.492415
1938.000000	14.483039
1937.000000	14.507768
1936.000000	14.536482
1935.000000	14.541990
1934.000000	14.615357
1933.000000	14.659190
1932.000000	14.757169
1931.000000	14.783773
1930.000000	14.868156
1929.000000	14.942461
1928.000000	15.041377
1927.000000	15.138418
1926.000000	15.233115
1925.000000	15.362621
1924.000000	15.465522
1923.000000	15.609326
1922.000000	15.762623
1921.000000	15.916505
1920.000000	16.056442
1919.000000	16.233061
1918.000000	16.412376
1917.000000	16.604349
1916.000000	16.796673
1915.000000	16.991928
1914.000000	17.216951
1913.000000	17.433535
1912.000000	17.650940
1911.000000	17.885339
1910.000000	18.097353
1909.000000	18.323782
1908.000000	18.551969
1907.000000	18.814848
1906.000000	19.104213
1905.000000	19.395923
1904.000000	19.677670
1903.000000	19.947581
1902.000000	20.227101
1901.000000	20.565808
1900.000000	20.895138
1899.000000	21.199153
1898.000000	21.572082
1897.000000	21.883833
1896.000000	22.181871
1895.000000	22.538626
1894.000000	22.889638
1893.000000	23.247800
1892.000000	23.634792
1891.000000	24.001041
1890.000000	24.372211
1889.000000	24.765533
1888.000000	25.177371
1887.000000	25.598586
1886.000000	26.030349
1885.000000	26.534424
1884.000000	27.017754
1883.000000	27.479169
1882.000000	27.980548
1881.000000	28.452979
1880.000000	28.913104
1879.000000	29.376159
1878.000000	29.798897
1877.000000	30.180499
1876.000000	30.516978
1875.000000	30.856036
1874.000000	31.195798
1873.000000	31.490671
1872.000000	31.744643
1871.000000	31.987245
1870.000000	32.210510
1869.000000	32.427564
1868.000000	32.602425
1867.000000	32.743182
1866.000000	32.871046
1865.000000	33.001958
1864.000000	33.113415
1863.000000	33.222176
1862.000000	33.314060
1861.000000	33.390006
1860.000000	33.439698
1859.000000	33.458802
1858.000000	33.501580
1857.000000	33.541076
1856.000000	33.562640
1855.000000	33.562289
1854.000000	33.540255
1853.000000	33.502751
1852.000000	33.500642
1851.000000	33.522558
1850.000000	33.506150
1849.000000	33.456927
1848.000000	33.377465
1847.000000	33.268118
1846.000000	33.218191
1845.000000	33.232021
1844.000000	33.239404
1843.000000	33.268939
1842.000000	33.251124
1841.000000	33.174827
1840.000000	33.102867
1839.000000	33.052471
1838.000000	33.009342
1837.000000	32.952734
1836.000000	32.886751
1835.000000	32.827331
1834.000000	32.770489
1833.000000	32.720211
1832.000000	32.666182
1831.000000	32.600433
1830.000000	32.525074
1829.000000	32.439167
1828.000000	32.357830
1827.000000	32.280010
1826.000000	32.215550
1825.000000	32.175702
1824.000000	32.158122
1823.000000	32.165506
1822.000000	32.136792
1821.000000	32.084755
1820.000000	32.029203
1819.000000	31.993223
1818.000000	31.975174
1817.000000	31.967908
1816.000000	31.955367
1815.000000	31.916340
1814.000000	31.895009
1813.000000	31.871921
1812.000000	31.842387
1811.000000	31.810040
1810.000000	31.762105
1809.000000	31.717687
1808.000000	31.677253
1807.000000	31.614786
1806.000000	31.547865
1805.000000	31.505321
1804.000000	31.472154
1803.000000	31.420703
1802.000000	31.357767
1801.000000	31.291315
1800.000000	31.228145
1799.000000	31.168138
1798.000000	31.144933
1797.000000	31.110828
1796.000000	31.047657
1795.000000	30.992457
1794.000000	30.944405
1793.000000	30.899517
1792.000000	30.842324
1791.000000	30.773645
1790.000000	30.706138
1789.000000	30.651172
1788.000000	30.596205
1787.000000	30.535965
1786.000000	30.450175
1785.000000	30.377980
1784.000000	30.312465
1783.000000	30.230777
1782.000000	30.161161
1781.000000	30.082403
1780.000000	29.994386
1779.000000	29.916800
1778.000000	29.810734
1777.000000	29.726116
1776.000000	29.619699
1775.000000	29.504141
1774.000000	29.389051
1773.000000	29.284626
1772.000000	29.151605
1771.000000	29.026319
1770.000000	28.901736
1769.000000	28.796959
1768.000000	28.701442
1767.000000	28.609909
1766.000000	28.533612
1765.000000	28.456143
1764.000000	28.429422
1763.000000	28.417467
1762.000000	28.432938
1761.000000	28.456612
1760.000000	28.510641
1759.000000	28.573460
1758.000000	28.612956
1757.000000	28.653624
1756.000000	28.716912
1755.000000	28.728280
1754.000000	28.743165
1753.000000	28.739297
1752.000000	28.708122
1751.000000	28.655734
1750.000000	28.625262
1749.000000	28.577796
1748.000000	28.489662
1747.000000	28.388871
1746.000000	28.285852
1745.000000	28.185413
1744.000000	28.044304
1743.000000	27.861590
1742.000000	27.676064
1741.000000	27.475418
1740.000000	27.288954
1739.000000	27.077409
1738.000000	26.901141
1737.000000	26.778082
1736.000000	26.672954
1735.000000	26.610955
1734.000000	26.592086
1733.000000	26.606150
1732.000000	26.681040
1731.000000	26.754290
1730.000000	26.837384
1729.000000	26.955873
1728.000000	27.064165
1727.000000	27.174098
1726.000000	27.226018
1725.000000	27.309933
1724.000000	27.380721
1723.000000	27.410373
1722.000000	27.464870
1721.000000	27.479286
1720.000000	27.545386
1719.000000	27.607854
1718.000000	27.675947
1717.000000	27.755173
1716.000000	27.818695
1715.000000	27.917729
1714.000000	27.989924
1713.000000	28.059540
1712.000000	28.140056
1711.000000	28.186585
1710.000000	28.184006
1709.000000	28.194788
1708.000000	28.200062
1707.000000	28.175451
1706.000000	28.176740
1705.000000	28.112514
1704.000000	28.069971
1703.000000	27.989455
1702.000000	27.901087
1701.000000	27.758221
1700.000000	27.604103
1699.000000	27.515383
1698.000000	27.384940
1697.000000	27.293173
1696.000000	27.254263
1695.000000	27.318019
1694.000000	27.375096
1693.000000	27.478348
1692.000000	27.645943
1691.000000	27.802991
1690.000000	27.919370
1689.000000	28.013012
1688.000000	28.078644
1687.000000	28.131266
1686.000000	28.204516
1685.000000	28.283508
1684.000000	28.447236
1683.000000	28.700739
1682.000000	29.038156
1681.000000	29.487967
1680.000000	29.962859
1679.000000	30.475841
1678.000000	30.963039
1677.000000	31.384957
1676.000000	31.761285
1675.000000	32.140308
1674.000000	32.420766
1673.000000	32.684699
1672.000000	32.911480
1671.000000	33.128768
1670.000000	33.294136
1669.000000	33.476382
1668.000000	33.635538
1667.000000	33.740080
1666.000000	33.827042
1665.000000	33.923732
1664.000000	34.017140
1663.000000	34.107266
1662.000000	34.166452
1661.000000	34.218137
1660.000000	34.277088
1659.000000	34.321624
1658.000000	34.335102
1657.000000	34.347525
1656.000000	34.362644
1655.000000	34.369090
1654.000000	34.365574
1653.000000	34.351979
1652.000000	34.350690
1651.000000	34.311662
1650.000000	34.295606
1649.000000	34.259274
1648.000000	34.198447
1647.000000	34.168093
1646.000000	34.128714
1645.000000	34.079842
1644.000000	34.038236
1643.000000	33.997802
1642.000000	33.922560
1641.000000	33.885290
1640.000000	33.823175
1639.000000	33.764575
1638.000000	33.707265
1637.000000	33.656752
1636.000000	33.590065
1635.000000	33.510838
1634.000000	33.452239
1633.000000	33.368207
1632.000000	33.280190
1631.000000	33.237529
1630.000000	33.170022
1629.000000	33.070989
1628.000000	32.993520
1627.000000	32.917575
1626.000000	32.828503
1625.000000	32.742830
1624.000000	32.670753
1623.000000	32.584377
1622.000000	32.495305
1621.000000	32.430611
1620.000000	32.357010
1619.000000	32.278486
1618.000000	32.202306
1617.000000	32.128588
1616.000000	32.039048
1615.000000	31.955602
1614.000000	31.863600
1613.000000	31.795507
1612.000000	31.727531
1611.000000	31.642796
1610.000000	31.569429
1609.000000	31.500985
1608.000000	31.430782
1607.000000	31.341125
1606.000000	31.262132
1605.000000	31.184781
1604.000000	31.093834
1603.000000	31.010388
1602.000000	30.945342
1601.000000	30.875491
1600.000000	30.790287
1599.000000	30.719499
1598.000000	30.635467
1597.000000	30.560928
1596.000000	30.508774
1595.000000	30.443025
1594.000000	30.369307
1593.000000	30.315044
1592.000000	30.262773
1591.000000	30.194094
1590.000000	30.137604
1589.000000	30.084395
1588.000000	30.015599
1587.000000	29.987471
1586.000000	29.944576
1585.000000	29.895118
1584.000000	29.861247
1583.000000	29.810617
1582.000000	29.761980
1581.000000	29.725296
1580.000000	29.700215
1579.000000	29.685214
1578.000000	29.655680
1577.000000	29.627669
1576.000000	29.625442
1575.000000	29.611495
1574.000000	29.604581
1573.000000	29.599189
1572.000000	29.594150
1571.000000	29.596377
1570.000000	29.608214
1569.000000	29.620637
1568.000000	29.621692
1567.000000	29.624856
1566.000000	29.633646
1565.000000	29.652750
1564.000000	29.660133
1563.000000	29.658727
1562.000000	29.673611
1561.000000	29.690957
1560.000000	29.690136
1559.000000	29.685565
1558.000000	29.672908
1557.000000	29.655094
1556.000000	29.651578
1555.000000	29.654859
1554.000000	29.649116
1553.000000	29.628255
1552.000000	29.596494
1551.000000	29.567194
1550.000000	29.548559
1549.000000	29.532620
1548.000000	29.511055
1547.000000	29.495468
1546.000000	29.487967
1545.000000	29.475778
1544.000000	29.455855
1543.000000	29.448471
1542.000000	29.444017
1541.000000	29.428313
1540.000000	29.429133
1539.000000	29.424562
1538.000000	29.404521
1537.000000	29.395848
1536.000000	29.397138
1535.000000	29.385652
1534.000000	29.375104
1533.000000	29.364087
1532.000000	29.349203
1531.000000	29.336546
1530.000000	29.315098
1529.000000	29.297401
1528.000000	29.271383
1527.000000	29.239856
1526.000000	29.224972
1525.000000	29.211494
1524.000000	29.193679
1523.000000	29.163676
1522.000000	29.136955
1521.000000	29.104139
1520.000000	29.069800
1519.000000	29.046008
1518.000000	29.008973
1517.000000	28.963734
1516.000000	28.950139
1515.000000	28.936309
1514.000000	28.909002
1513.000000	28.865521
1512.000000	28.826845
1511.000000	28.799772
1510.000000	28.774105
1509.000000	28.744571
1508.000000	28.704489
1507.000000	28.659601
1506.000000	28.634638
1505.000000	28.596314
1504.000000	28.562209
1503.000000	28.541347
1502.000000	28.520486
1501.000000	28.498452
1500.000000	28.476888
1499.000000	28.456378
1498.000000	28.433289
1497.000000	28.437626
1496.000000	28.433055
1495.000000	28.433407
1494.000000	28.422155
1493.000000	28.406451
1492.000000	28.412428
1491.000000	28.423093
1490.000000	28.422155
1489.000000	28.412779
1488.000000	28.428719
1487.000000	28.435399
1486.000000	28.424851
1485.000000	28.423327
1484.000000	28.443486
1483.000000	28.443486
1482.000000	28.486264
1481.000000	28.469856
1480.000000	28.496343
1479.000000	28.523533
1478.000000	28.521775
1477.000000	28.559162
1476.000000	28.579671
1475.000000	28.622566
1474.000000	28.647413
1473.000000	28.674603
1472.000000	28.693824
1471.000000	28.692417
1470.000000	28.712458
1469.000000	28.740352
1468.000000	28.779965
1467.000000	28.828486
1466.000000	28.872436
1465.000000	28.884156
1464.000000	28.924121
1463.000000	28.970532
1462.000000	29.017763
1461.000000	29.079879
1460.000000	29.120781
1459.000000	29.188523
1458.000000	29.261069
1457.000000	29.323419
1456.000000	29.412960
1455.000000	29.487850
1454.000000	29.577039
1453.000000	29.654859
1452.000000	29.759401
1451.000000	29.825384
1450.000000	29.899337
1449.000000	29.978916
1448.000000	30.097053
1447.000000	30.215307
1446.000000	30.281173
1445.000000	30.394153
1444.000000	30.476427
1443.000000	30.609214
1442.000000	30.699458
1441.000000	30.795444
1440.000000	30.933271
1439.000000	31.032773
1438.000000	31.151027
1437.000000	31.251233
1436.000000	31.359174
1435.000000	31.496414
1434.000000	31.637639
1433.000000	31.772184
1432.000000	31.896416
1431.000000	32.012912
1430.000000	32.179335
1429.000000	32.343063
1428.000000	32.512182
1427.000000	32.674972
1426.000000	32.893783
1425.000000	33.102398
1424.000000	33.313474
1423.000000	33.511659
1422.000000	33.728829
1421.000000	33.985144
1420.000000	34.235482
1419.000000	34.433081
1418.000000	34.614740
1417.000000	34.841638
1416.000000	35.115768
1415.000000	35.398101
1414.000000	35.615154
1413.000000	35.856116
1412.000000	36.100712
1411.000000	36.418674
1410.000000	36.771327
1409.000000	37.062919
1408.000000	37.397641
1407.000000	37.736699
1406.000000	38.107752
1405.000000	38.449154
1404.000000	38.795713
1403.000000	39.119183
1402.000000	39.545555
1401.000000	39.831287
1400.000000	40.139639
1399.000000	40.342160
1398.000000	40.588044
1397.000000	40.873308
1396.000000	41.150367
1395.000000	41.336128
1394.000000	41.526226
1393.000000	41.757343
1392.000000	41.996547
1391.000000	42.207975
1390.000000	42.453039
1389.000000	42.791394
1388.000000	43.101972
1387.000000	43.411965
1386.000000	43.749148
1385.000000	44.162041
1384.000000	44.531923
1383.000000	44.861956
1382.000000	45.132687
1381.000000	45.315987
1380.000000	45.410801
1379.000000	45.556480
1378.000000	45.663249
1377.000000	45.779628
1376.000000	45.937261
1375.000000	46.125132
1374.000000	46.378048
1373.000000	46.648428
1372.000000	46.944356
1371.000000	47.192467
1370.000000	47.434484
1369.000000	47.698300
1368.000000	47.923558
1367.000000	48.078612
1366.000000	48.241637
1365.000000	48.428218
1364.000000	48.557841
1363.000000	48.718170
1362.000000	48.837948
1361.000000	48.886234
1360.000000	48.899126
1359.000000	49.015388
1358.000000	49.141494
1357.000000	49.313309
1356.000000	49.584625
1355.000000	49.880554
1354.000000	50.176365
1353.000000	50.560194
1352.000000	50.954687
1351.000000	51.309450
1350.000000	51.628115
1349.000000	51.927560
1348.000000	52.204033
1347.000000	52.439956
1346.000000	52.687950
1345.000000	52.932076
1344.000000	53.144090
1343.000000	53.346259
1342.000000	53.553585
1341.000000	53.749542
1340.000000	53.943390
1339.000000	54.106766
1338.000000	54.283854
1337.000000	54.446645
1336.000000	54.597363
1335.000000	54.728978
1334.000000	54.869969
1333.000000	55.005686
1332.000000	55.120776
1331.000000	55.232936
1330.000000	55.337712
1329.000000	55.431120
1328.000000	55.526637
1327.000000	55.609615
1326.000000	55.679700
1325.000000	55.776155
1324.000000	55.865695
1323.000000	55.923475
1322.000000	55.981723
1321.000000	56.045245
1320.000000	56.100915
1319.000000	56.148615
1318.000000	56.212723
1317.000000	56.272729
1316.000000	56.319492
1315.000000	56.361332
1314.000000	56.394851
1313.000000	56.424502
1312.000000	56.468335
1311.000000	56.492947
1310.000000	56.518145
1309.000000	56.542991
1308.000000	56.546507
1307.000000	56.561860
1306.000000	56.568892
1305.000000	56.570767
1304.000000	56.576979
1303.000000	56.580729
1302.000000	56.579323
1301.000000	56.563501
1300.000000	56.558696
1299.000000	56.550492
1298.000000	56.535842
1297.000000	56.522364
1296.000000	56.505956
1295.000000	56.506659
1294.000000	56.486384
1293.000000	56.439035
1292.000000	56.404110
1291.000000	56.369184
1290.000000	56.356996
1289.000000	56.321015
1288.000000	56.281871
1287.000000	56.248117
1286.000000	56.202175
1285.000000	56.155061
1284.000000	56.103259
1283.000000	56.049816
1282.000000	56.011609
1281.000000	55.984536
1280.000000	55.953243
1279.000000	55.917849
1278.000000	55.882572
1277.000000	55.856437
1276.000000	55.828074
1275.000000	55.810612
1274.000000	55.787758
1273.000000	55.771584
1272.000000	55.756114
1271.000000	55.743691
1270.000000	55.737128
1269.000000	55.723884
1268.000000	55.712633
1267.000000	55.717673
1266.000000	55.705015
1265.000000	55.681223
1264.000000	55.675481
1263.000000	55.658956
1262.000000	55.645243
1261.000000	55.642313
1260.000000	55.630711
1259.000000	55.621569
1258.000000	55.581135
1257.000000	55.563672
1256.000000	55.545389
1255.000000	55.533201
1254.000000	55.499799
1253.000000	55.476476
1252.000000	55.456318
1251.000000	55.399242
1250.000000	55.358222
1249.000000	55.335368
1248.000000	55.280284
1247.000000	55.224263
1246.000000	55.165312
1245.000000	55.110111
1244.000000	55.035806
1243.000000	54.973222
1242.000000	54.865633
1241.000000	54.786289
1240.000000	54.724524
1239.000000	54.661120
1238.000000	54.597832
1237.000000	54.511221
1236.000000	54.401288
1235.000000	54.316202
1234.000000	54.230998
1233.000000	54.138762
1232.000000	54.022617
1231.000000	53.930615
1230.000000	53.827831
1229.000000	53.733251
1228.000000	53.619334
1227.000000	53.521003
1226.000000	53.423728
1225.000000	53.301957
1224.000000	53.187454
1223.000000	53.082326
1222.000000	52.950828
1221.000000	52.855662
1220.000000	52.763074
1219.000000	52.645289
1218.000000	52.530551
1217.000000	52.442065
1216.000000	52.364948
1215.000000	52.266266
1214.000000	52.162193
1213.000000	52.069957
1212.000000	51.970220
1211.000000	51.856068
1210.000000	51.782232
1209.000000	51.689293
1208.000000	51.626474
1207.000000	51.535410
1206.000000	51.497672
1205.000000	51.424774
1204.000000	51.383989
1203.000000	51.333241
1202.000000	51.293628
1201.000000	51.224714
1200.000000	51.141386
1199.000000	51.058994
1198.000000	50.940506
1197.000000	50.810180
1196.000000	50.615746
1195.000000	50.414749
1194.000000	50.160778
1193.000000	49.860747
1192.000000	49.540676
1191.000000	49.222831
1190.000000	48.914127
1189.000000	48.667071
1188.000000	48.519751
1187.000000	48.445916
1186.000000	48.463378
1185.000000	48.554325
1184.000000	48.739266
1183.000000	49.016208
1182.000000	49.353860
1181.000000	49.695848
1180.000000	50.023420
1179.000000	50.315833
1178.000000	50.615863
1177.000000	50.839949
1176.000000	51.031101
1175.000000	51.282611
1174.000000	51.488296
1173.000000	51.695973
1172.000000	51.929083
1171.000000	52.161958
1170.000000	52.418391
1169.000000	52.662283
1168.000000	52.918598
1167.000000	53.164248
1166.000000	53.430760
1165.000000	53.694224
1164.000000	53.937296
1163.000000	54.213418
1162.000000	54.443129
1161.000000	54.723821
1160.000000	54.943101
1159.000000	55.164491
1158.000000	55.391155
1157.000000	55.568829
1156.000000	55.721423
1155.000000	55.882572
1154.000000	55.980785
1153.000000	56.041143
1152.000000	56.071029
1151.000000	56.121776
1150.000000	56.161741
1149.000000	56.184947
1148.000000	56.256790
1147.000000	56.368950
1146.000000	56.462475
1145.000000	56.624796
1144.000000	56.822512
1143.000000	57.031830
1142.000000	57.241851
1141.000000	57.466405
1140.000000	57.688381
1139.000000	57.910826
1138.000000	58.165266
1137.000000	58.408337
1136.000000	58.661488
1135.000000	58.908545
1134.000000	59.090204
1133.000000	59.280184
1132.000000	59.435239
1131.000000	59.605999
1130.000000	59.726714
1129.000000	59.849539
1128.000000	59.929821
1127.000000	60.022291
1126.000000	60.086399
1125.000000	60.143827
1124.000000	60.192582
1123.000000	60.249072
1122.000000	60.266183
1121.000000	60.283646
1120.000000	60.289154
1119.000000	60.324666
1118.000000	60.318220
1117.000000	60.317048
1116.000000	60.305562
1115.000000	60.300640
1114.000000	60.288451
1113.000000	60.276848
1112.000000	60.255870
1111.000000	60.238758
1110.000000	60.216491
1109.000000	60.223523
1108.000000	60.204536
1107.000000	60.178049
1106.000000	60.163165
1105.000000	60.141952
1104.000000	60.113941
1103.000000	60.104331
1102.000000	60.066944
1101.000000	60.052529
1100.000000	60.021939
1099.000000	60.012095
1098.000000	59.969669
1097.000000	59.938962
1096.000000	59.897708
1095.000000	59.857040
1094.000000	59.842507
1093.000000	59.809340
1092.000000	59.787189
1091.000000	59.739489
1090.000000	59.686983
1089.000000	59.678311
1088.000000	59.636705
1087.000000	59.594865
1086.000000	59.555486
1085.000000	59.522201
1084.000000	59.471571
1083.000000	59.450709
1082.000000	59.415198
1081.000000	59.370545
1080.000000	59.354020
1079.000000	59.335971
1078.000000	59.312883
1077.000000	59.283114
1076.000000	59.254166
1075.000000	59.230960
1074.000000	59.225804
1073.000000	59.213498
1072.000000	59.180682
1071.000000	59.148569
1070.000000	59.130872
1069.000000	59.136849
1068.000000	59.119152
1067.000000	59.113995
1066.000000	59.108487
1065.000000	59.101455
1064.000000	59.114113
1063.000000	59.111534
1062.000000	59.106846
1061.000000	59.106377
1060.000000	59.107198
1059.000000	59.124309
1058.000000	59.124778
1057.000000	59.139428
1056.000000	59.159234
1055.000000	59.176345
1054.000000	59.189237
1053.000000	59.209044
1052.000000	59.233422
1051.000000	59.264011
1050.000000	59.292490
1049.000000	59.316399
1048.000000	59.343589
1047.000000	59.359177
1046.000000	59.393633
1045.000000	59.428324
1044.000000	59.442857
1043.000000	59.470750
1042.000000	59.492667
1041.000000	59.526537
1040.000000	59.558767
1039.000000	59.579160
1038.000000	59.618422
1037.000000	59.651120
1036.000000	59.643971
1035.000000	59.654168
1034.000000	59.683116
1033.000000	59.694601
1032.000000	59.709017
1031.000000	59.717572
1030.000000	59.725308
1029.000000	59.720151
1028.000000	59.709251
1027.000000	59.699993
1026.000000	59.680537
1025.000000	59.654519
1024.000000	59.630728
1023.000000	59.614906
1022.000000	59.580098
1021.000000	59.542008
1020.000000	59.507668
1019.000000	59.467938
1018.000000	59.427973
1017.000000	59.398321
1016.000000	59.376171
1015.000000	59.347105
1014.000000	59.323665
1013.000000	59.296358
1012.000000	59.281825
1011.000000	59.286161
1010.000000	59.281942
1009.000000	59.271629
1008.000000	59.265183
1007.000000	59.262135
1006.000000	59.278309
1005.000000	59.272097
1004.000000	59.283114
1003.000000	59.294482
1002.000000	59.293076
1001.000000	59.305851
1000.000000	59.330228
999.000000	59.358473
998.000000	59.361169
997.000000	59.389531
996.000000	59.442388
995.000000	59.478017
994.000000	59.521263
993.000000	59.566151
992.000000	59.621352
991.000000	59.690031
990.000000	59.760585
989.000000	59.839460
988.000000	59.939079
987.000000	60.025455
986.000000	60.126247
985.000000	60.241571
984.000000	60.352559
983.000000	60.456281
982.000000	60.582739
981.000000	60.711072
980.000000	60.852298
979.000000	60.984264
978.000000	61.118809
977.000000	61.240697
976.000000	61.384500
975.000000	61.518811
974.000000	61.659333
973.000000	61.766805
972.000000	61.893732
971.000000	62.035660
970.000000	62.167744
969.000000	62.259511
968.000000	62.376594
967.000000	62.475744
966.000000	62.582044
965.000000	62.705690
964.000000	62.806716
963.000000	62.898248
962.000000	62.991891
961.000000	63.092917
960.000000	63.211757
959.000000	63.303407
958.000000	63.371383
957.000000	63.468541
956.000000	63.574255
955.000000	63.644223
954.000000	63.695205
953.000000	63.797988
952.000000	63.856705
951.000000	63.928197
950.000000	63.993712
949.000000	64.047858
948.000000	64.090753
947.000000	64.171738
946.000000	64.211703
945.000000	64.233853
944.000000	64.296203
943.000000	64.339919
942.000000	64.377774
941.000000	64.437897
940.000000	64.473878
939.000000	64.524508
938.000000	64.576076
937.000000	64.622721
936.000000	64.711324
935.000000	64.833797
934.000000	64.896616
933.000000	64.952637
932.000000	65.022371
931.000000	65.141094
930.000000	65.212000
929.000000	65.276811
928.000000	65.407840
927.000000	65.479449
926.000000	65.535236
925.000000	65.614580
924.000000	65.675875
923.000000	65.738811
922.000000	65.861988
921.000000	65.917423
920.000000	65.975085
919.000000	66.008839
918.000000	66.077635
917.000000	66.146783
916.000000	66.189092
915.000000	66.245816
914.000000	66.306291
913.000000	66.384112
912.000000	66.435328
911.000000	66.514086
910.000000	66.671953
909.000000	66.716255
908.000000	66.749188
907.000000	66.824664
906.000000	66.901078
905.000000	66.999174
904.000000	67.078987
903.000000	67.140400
902.000000	67.222556
901.000000	67.260060
900.000000	67.207906
899.000000	67.250333
898.000000	67.300963
897.000000	67.307409
896.000000	67.311042
895.000000	67.321473
894.000000	67.350421
893.000000	67.276820
892.000000	67.170285
891.000000	67.094457
890.000000	67.035623
889.000000	66.885139
888.000000	66.826891
887.000000	66.747547
886.000000	66.623433
885.000000	66.409544
884.000000	66.246519
883.000000	66.010480
882.000000	65.820499
881.000000	65.559496
880.000000	65.424717
879.000000	65.234151
878.000000	64.954278
877.000000	64.716832
876.000000	64.430045
875.000000	64.177715
874.000000	63.766345
873.000000	63.379352
872.000000	63.022714
871.000000	62.730888
870.000000	62.295960
869.000000	61.867948
868.000000	61.504278
867.000000	61.335042
866.000000	61.349692
865.000000	61.506505
864.000000	61.602022
863.000000	61.667889
862.000000	61.723910
861.000000	61.792354
860.000000	61.888809
859.000000	61.967802
858.000000	63.987500
857.000000	64.279200
856.000000	63.990800
855.000000	63.692500
854.000000	63.471500
853.000000	63.450200
852.000000	64.001300
851.000000	64.067200
850.000000	64.034700
849.000000	64.315200
848.000000	63.806900
847.000000	64.197100
846.000000	64.227400
845.000000	64.362800
844.000000	64.591800
843.000000	64.440100
842.000000	64.733100
841.000000	64.370800
840.000000	64.688100
839.000000	64.600200
838.000000	64.611500
837.000000	64.963300
836.000000	64.714000
835.000000	64.679100
834.000000	64.658200
833.000000	64.765600
832.000000	64.841700
831.000000	64.821900
830.000000	64.857500
829.000000	64.803400
828.000000	64.691800
827.000000	64.755600
826.000000	64.785300
825.000000	64.801000
824.000000	64.691800
823.000000	64.731100
822.000000	64.754300
821.000000	64.581100
820.000000	64.739400
819.000000	64.586700
818.000000	64.522400
817.000000	64.664000
816.000000	64.547400
815.000000	64.350800
814.000000	64.361100
813.000000	64.411500
812.000000	64.344200
811.000000	64.201600
810.000000	63.964500
809.000000	63.957100
808.000000	63.849700
807.000000	63.737800
806.000000	63.699500
805.000000	63.480700
804.000000	63.476600
803.000000	63.381500
802.000000	63.252200
801.000000	63.132000
800.000000	63.104700
799.000000	63.033100
798.000000	62.944100
797.000000	62.825900
796.000000	62.629300
795.000000	62.521800
794.000000	62.431500
793.000000	62.348600
792.000000	62.155400
791.000000	62.130800
790.000000	61.995600
789.000000	61.875600
788.000000	61.704300
787.000000	61.612700
786.000000	61.544700
785.000000	61.361700
784.000000	61.306400
783.000000	61.219400
782.000000	61.035200
781.000000	60.936900
780.000000	60.849300
779.000000	60.875200
778.000000	60.811200
777.000000	60.670500
776.000000	60.578000
775.000000	60.498100
774.000000	60.401700
773.000000	60.359700
772.000000	60.250100
771.000000	60.074000
770.000000	60.084500
769.000000	60.035700
768.000000	59.920200
767.000000	59.899900
766.000000	59.796200
765.000000	59.716700
764.000000	59.685800
763.000000	59.571900
762.000000	59.524000
761.000000	59.472800
760.000000	59.416900
759.000000	59.418300
758.000000	59.408100
757.000000	59.324500
756.000000	59.273200
755.000000	59.208100
754.000000	59.152500
753.000000	59.176900
752.000000	59.181000
751.000000	59.148100
750.000000	59.113800
749.000000	59.045900
748.000000	59.027100
747.000000	59.003500
746.000000	58.944100
745.000000	59.000500
744.000000	58.981800
743.000000	58.893800
742.000000	58.888100
741.000000	58.889800
740.000000	58.842900
739.000000	58.814200
738.000000	58.813400
737.000000	58.793200
736.000000	58.720800
735.000000	58.613400
734.000000	58.565000
733.000000	58.557900
732.000000	58.497900
731.000000	58.391900
730.000000	58.346000
729.000000	58.261000
728.000000	58.168000
727.000000	58.072800
726.000000	58.032200
725.000000	57.955500
724.000000	57.840600
723.000000	57.747500
722.000000	57.628600
721.000000	57.527800
720.000000	57.440600
719.000000	57.306600
718.000000	57.142000
717.000000	57.057700
716.000000	56.935600
715.000000	56.799900
714.000000	56.601700
713.000000	56.450600
712.000000	56.349700
711.000000	56.211100
710.000000	56.055900
709.000000	55.897300
708.000000	55.786800
707.000000	55.645300
706.000000	55.526600
705.000000	55.463600
704.000000	55.314800
703.000000	55.202100
702.000000	55.102000
701.000000	54.966100
700.000000	54.867000
699.000000	54.741200
698.000000	54.655100
697.000000	54.571500
696.000000	54.499100
695.000000	54.466800
694.000000	54.376500
693.000000	54.317600
692.000000	54.266800
691.000000	54.265400
690.000000	54.262700
689.000000	54.281100
688.000000	54.300700
687.000000	54.333900
686.000000	54.362000
685.000000	54.330600
684.000000	54.389000
683.000000	54.466000
682.000000	54.497200
681.000000	54.524700
680.000000	54.623100
679.000000	54.714300
678.000000	54.763000
677.000000	54.793800
676.000000	54.873400
675.000000	54.904200
674.000000	54.917100
673.000000	54.890000
672.000000	54.888500
671.000000	54.868700
670.000000	54.883400
669.000000	54.843800
668.000000	54.762100
667.000000	54.663000
666.000000	54.573800
665.000000	54.482300
664.000000	54.394100
663.000000	54.260700
662.000000	54.085200
661.000000	53.904400
660.000000	53.762800
659.000000	53.450900
658.000000	53.221000
657.000000	52.899900
656.000000	52.613100
655.000000	52.294000
654.000000	51.942900
653.000000	51.572900
652.000000	51.190700
651.000000	50.819700
650.000000	50.422500
649.000000	49.970000
648.000000	49.574200
647.000000	49.214500
646.000000	48.811200
645.000000	48.443200
644.000000	48.166900
643.000000	47.895300
642.000000	47.684000
641.000000	47.509500
640.000000	47.432700
639.000000	47.407600
638.000000	47.415200
637.000000	47.516000
636.000000	47.709600
635.000000	47.925800
634.000000	48.202000
633.000000	48.573500
632.000000	48.970300
631.000000	49.454300
630.000000	50.025000
629.000000	50.609000
628.000000	51.224300
627.000000	51.939400
626.000000	52.648500
625.000000	53.432200
624.000000	54.210500
623.000000	55.006500
622.000000	55.772500
621.000000	56.555800
620.000000	57.307900
619.000000	58.021100
618.000000	58.744600
617.000000	59.430600
616.000000	60.088400
615.000000	60.708500
614.000000	61.313600
613.000000	61.880900
612.000000	62.417400
611.000000	62.928400
610.000000	63.384000
609.000000	63.842200
608.000000	64.225600
607.000000	64.647200
606.000000	65.067100
605.000000	65.416600
604.000000	65.767100
603.000000	66.150500
602.000000	66.509700
601.000000	66.819300
600.000000	67.171400
599.000000	67.449400
598.000000	67.720600
597.000000	68.006500
596.000000	68.227200
595.000000	68.447100
594.000000	68.662500
593.000000	68.776800
592.000000	68.982400
591.000000	69.134800
590.000000	69.304400
589.000000	69.398500
588.000000	69.441700
587.000000	69.539600
586.000000	69.566800
585.000000	69.614800
584.000000	69.709800
583.000000	69.748100
582.000000	69.796700
581.000000	69.848100
580.000000	69.934100
579.000000	70.012200
578.000000	70.033900
577.000000	70.117900
576.000000	70.184600
575.000000	70.246200
574.000000	70.309100
573.000000	70.331300
572.000000	70.329000
571.000000	70.377300
570.000000	70.356900
569.000000	70.345400
568.000000	70.293900
567.000000	70.209000
566.000000	70.135200
565.000000	70.059400
564.000000	69.944600
563.000000	69.824800
562.000000	69.699200
561.000000	69.496800
560.000000	69.355500
559.000000	69.200800
558.000000	69.025100
557.000000	68.803400
556.000000	68.499200
555.000000	68.252800
554.000000	67.961700
553.000000	67.599400
552.000000	67.169300
551.000000	66.787600
550.000000	66.262600
549.000000	65.733800
548.000000	65.127700
547.000000	64.495400
546.000000	63.750500
545.000000	62.983400
544.000000	62.164300
543.000000	61.283500
542.000000	60.374700
541.000000	59.407600
540.000000	58.442200
539.000000	57.430000
538.000000	56.398300
537.000000	55.337900
536.000000	54.279500
535.000000	53.232000
534.000000	52.185400
533.000000	51.104200
532.000000	50.041500
531.000000	48.989900
530.000000	47.953000
529.000000	46.948300
528.000000	45.964400
527.000000	45.033800
526.000000	44.131600
525.000000	43.226100
524.000000	42.322700
523.000000	41.475000
522.000000	40.614900
521.000000	39.777600
520.000000	38.948600
519.000000	38.150400
518.000000	37.376200
517.000000	36.640400
516.000000	35.908800
515.000000	35.184100
514.000000	34.511100
513.000000	33.825300
512.000000	33.174400
511.000000	32.570600
510.000000	31.978100
509.000000	31.404900
508.000000	30.861000
507.000000	30.384400
506.000000	29.883100
505.000000	29.416400
504.000000	28.981100
503.000000	28.569000
502.000000	28.175100
501.000000	27.795200
500.000000	27.409000
499.000000	27.033600
498.000000	26.694200
497.000000	26.369100
496.000000	26.049600
495.000000	25.729300
494.000000	25.433500
493.000000	25.129600
492.000000	24.832500
491.000000	24.542200
490.000000	24.245000
489.000000	23.952700
488.000000	23.667400
487.000000	23.361900
486.000000	23.058100
485.000000	22.746500
484.000000	22.425600
483.000000	22.089200
482.000000	21.754300
481.000000	21.404600
480.000000	21.043700
479.000000	20.677100
478.000000	20.311600
477.000000	19.938400
476.000000	19.574000
475.000000	19.213800
474.000000	18.862500
473.000000	18.523800
472.000000	18.210600
471.000000	17.890800
470.000000	17.591500
469.000000	17.327600
468.000000	17.095000
467.000000	16.897300
466.000000	16.732300
465.000000	16.572700
464.000000	16.428600
463.000000	16.314000
462.000000	16.237000
461.000000	16.167900
460.000000	16.117100
459.000000	16.093800
458.000000	16.066700
457.000000	16.073900
456.000000	16.100200
455.000000	16.129400
454.000000	16.154900
453.000000	16.176500
452.000000	16.212200
451.000000	16.256500
450.000000	16.321900
449.000000	16.356500
448.000000	16.384500
447.000000	16.422700
446.000000	16.447500
445.000000	16.461300
444.000000	16.458600
443.000000	16.433100
442.000000	16.418200
441.000000	16.380900
440.000000	16.309800
439.000000	16.254000
438.000000	16.180800
437.000000	16.086500
436.000000	16.013100
435.000000	15.924500
434.000000	15.799300
433.000000	15.696600
432.000000	15.581800
431.000000	15.453300
430.000000	15.333500
429.000000	15.205900
428.000000	15.065100
427.000000	14.922900
426.000000	14.780700
425.000000	14.635700
424.000000	14.490400
423.000000	14.345100
422.000000	14.181200
421.000000	14.000100
420.000000	13.822900
419.000000	13.642400
418.000000	13.457300
417.000000	13.258400
416.000000	13.045000
415.000000	12.849300
414.000000	12.652100
413.000000	12.448600
412.000000	12.223000
411.000000	12.007300
410.000000	11.785300
409.000000	11.540900
408.000000	11.294700
407.000000	11.060500
406.000000	10.822200
405.000000	10.597200
404.000000	10.351300
403.000000	10.106200
402.000000	9.885100
401.000000	9.640700
400.000000	9.409300
399.000000	9.193700
398.000000	8.969500
397.000000	8.762900
396.000000	8.560700
395.000000	8.361500
394.000000	8.160200
393.000000	7.961300
392.000000	7.792700
391.000000	7.601900
390.000000	7.459600
389.000000	7.314500
388.000000	7.175300
387.000000	7.063600
386.000000	6.936900
385.000000	6.823400
384.000000	6.725800
383.000000	6.643400
382.000000	6.544900
381.000000	6.479700
380.000000	6.426400
379.000000	6.368500
378.000000	6.324700
377.000000	6.241900
376.000000	6.100800
375.000000	5.524400
374.000000	5.315300
373.000000	5.697900
372.000000	5.975600
371.000000	5.773300
370.000000	5.722600
369.000000	5.877500
368.000000	5.867500
367.000000	5.966600
366.000000	5.871100
365.000000	5.779300
364.000000	5.640000
363.000000	5.706400
362.000000	5.884400
361.000000	5.824200
360.000000	5.868300
359.000000	5.844300
358.000000	5.814900
357.000000	5.703600
356.000000	5.624000
355.000000	5.712300
354.000000	5.794300
353.000000	5.754900
352.000000	5.698900
351.000000	5.807500
350.000000	5.716000
349.000000	5.702000
348.000000	5.957200
347.000000	5.772200
346.000000	5.485500
345.000000	5.926000
344.000000	5.794900
343.000000	5.789900
342.000000	6.172200
341.000000	5.852300
340.000000	5.907700
339.000000	5.808600
338.000000	6.056100
337.000000	6.012100
336.000000	5.915600
335.000000	5.947400
334.000000	5.957300
333.000000	5.793300
332.000000	6.247000
331.000000	5.814200
330.000000	6.036000
329.000000	6.217300
328.000000	5.661300
327.000000	5.859600
326.000000	6.404900
325.000000	6.365700
324.000000	6.556500
323.000000	6.550300
322.000000	6.388800
321.000000	6.469200
320.000000	7.107700
319.000000	6.482000
318.000000	6.520700
317.000000	7.076200
316.000000	5.822300
315.000000	5.685600
314.000000	5.674900
313.000000	5.724800
312.000000	5.770500
311.000000	5.665100
310.000000	5.651000
309.000000	5.695800
308.000000	5.661100
307.000000	5.701300
306.000000	5.722100
305.000000	5.796200
304.000000	5.779300
303.000000	5.737600
302.000000	5.720200
301.000000	5.746300
300.000000	5.732300
299.000000	5.741900
298.000000	5.808800
297.000000	5.788600
296.000000	5.862900
295.000000	5.889100
294.000000	5.795300
293.000000	5.767800
292.000000	5.872000
291.000000	5.826800
290.000000	5.812400
289.000000	5.910200
288.000000	5.845000
287.000000	5.828600
286.000000	5.806400
285.000000	5.837800
284.000000	5.871900
283.000000	5.861500
282.000000	5.857400
281.000000	5.888800
280.000000	5.904800
279.000000	5.990400
278.000000	5.905900
277.000000	5.843200
276.000000	5.972500
275.000000	5.893300
274.000000	5.956800
273.000000	5.967100
272.000000	5.958700
271.000000	6.061800
270.000000	6.088500
269.000000	6.046800
268.000000	6.117100
267.000000	6.058300
266.000000	6.155000
265.000000	6.171800
264.000000	6.154300
263.000000	6.230000
262.000000	6.266300
261.000000	6.320900
260.000000	6.365100
259.000000	6.380200
258.000000	6.445900
257.000000	6.440400
256.000000	6.485800
255.000000	6.468400
254.000000	6.424500
253.000000	6.509000
252.000000	6.516200
251.000000	6.569000
250.000000	6.561400
