17ms
0ms
10X
1
Counts
7/4/2024 5:30:16 PM
10.00000000
0.00000000
Resolution=2&-1
Time1=17ms:Average1=10:Objective=10X:Aperture=1: (7/4/2024 5:30:16 PM)
350.16613620	350.60193709	351.03772818	351.47350942	351.90928082	352.34504234	352.78079397	353.21653569	353.65226748	354.08798932	354.52370120	354.95940309	355.39509497	355.83077683	356.26644864	356.70211039	357.13776206	357.57340363	358.00903508	358.44465639	358.88026755	359.31586852	359.75145930	360.18703986	360.62261019	361.05817026	361.49372007	361.92925958	362.36478878	362.80030765	363.23581617	363.67131432	364.10680209	364.54227945	364.97774638	365.41320287	365.84864890	366.28408445	366.71950949	367.15492401	367.59032800	368.02572142	368.46110427	368.89647652	369.33183815	369.76718915	370.20252950	370.63785917	371.07317815	371.50848642	371.94378395	372.37907074	372.81434676	373.24961199	373.68486642	374.12011002	374.55534277	374.99056467	375.42577567	375.86097578	376.29616497	376.73134321	377.16651050	377.60166680	378.03681211	378.47194641	378.90706966	379.34218187	379.77728300	380.21237303	380.64745196	381.08251975	381.51757640	381.95262187	382.38765616	382.82267924	383.25769109	383.69269170	384.12768105	384.56265911	384.99762586	385.43258130	385.86752540	386.30245813	386.73737949	387.17228945	387.60718799	388.04207509	388.47695074	388.91181492	389.34666760	389.78150877	390.21633841	390.65115650	391.08596302	391.52075795	391.95554127	392.39031297	392.82507302	393.25982140	393.69455810	394.12928310	394.56399638	394.99869791	395.43338769	395.86806568	396.30273188	396.73738625	397.17202880	397.60665948	398.04127829	398.47588521	398.91048022	399.34506329	399.77963441	400.21419356	400.64874072	401.08327588	401.51779900	401.95231008	402.38680910	402.82129603	403.25577086	403.69023356	404.12468412	404.55912252	404.99354874	405.42796276	405.86236457	406.29675414	406.73113145	407.16549648	407.59984922	408.03418965	408.46851774	408.90283349	409.33713686	409.77142784	410.20570642	410.63997256	411.07422626	411.50846749	411.94269624	412.37691248	412.81111621	413.24530738	413.67948600	414.11365204	414.54780547	414.98194629	415.41607447	415.85018999	416.28429284	416.71838299	417.15246043	417.58652514	418.02057709	418.45461627	418.88864266	419.32265625	419.75665700	420.19064491	420.62461995	421.05858210	421.49253135	421.92646768	422.36039106	422.79430148	423.22819892	423.66208336	424.09595478	424.52981316	424.96365849	425.39749074	425.83130989	426.26511593	426.69890883	427.13268858	427.56645516	428.00020855	428.43394873	428.86767568	429.30138939	429.73508982	430.16877697	430.60245081	431.03611133	431.46975851	431.90339232	432.33701276	432.77061979	433.20421340	433.63779357	434.07136029	434.50491352	434.93845327	435.37197949	435.80549219	436.23899132	436.67247689	437.10594887	437.53940723	437.97285197	438.40628306	438.83970048	439.27310421	439.70649424	440.13987054	440.57323310	441.00658189	441.43991690	441.87323811	442.30654551	442.73983906	443.17311875	443.60638457	444.03963649	444.47287449	444.90609856	445.33930868	445.77250482	446.20568697	446.63885511	447.07200922	447.50514928	447.93827527	448.37138718	448.80448497	449.23756865	449.67063818	450.10369354	450.53673472	450.96976170	451.40277446	451.83577298	452.26875725	452.70172723	453.13468291	453.56762428	454.00055132	454.43346400	454.86636230	455.29924622	455.73211572	456.16497079	456.59781142	457.03063757	457.46344923	457.89624639	458.32902903	458.76179711	459.19455064	459.62728958	460.06001392	460.49272363	460.92541871	461.35809913	461.79076486	462.22341591	462.65605223	463.08867382	463.52128065	463.95387271	464.38644998	464.81901243	465.25156005	465.68409283	466.11661073	466.54911374	466.98160185	467.41407503	467.84653327	468.27897654	468.71140483	469.14381811	469.57621637	470.00859960	470.44096776	470.87332084	471.30565882	471.73798169	472.17028942	472.60258200	473.03485940	473.46712160	473.89936860	474.33160036	474.76381687	475.19601811	475.62820407	476.06037471	476.49253003	476.92467000	477.35679461	477.78890383	478.22099765	478.65307605	479.08513900	479.51718650	479.94921851	480.38123503	480.81323602	481.24522149	481.67719139	482.10914572	482.54108446	482.97300758	483.40491507	483.83680691	484.26868308	484.70054356	485.13238833	485.56421738	485.99603067	486.42782820	486.85960995	487.29137589	487.72312601	488.15486029	488.58657870	489.01828124	489.44996788	489.88163860	490.31329338	490.74493220	491.17655505	491.60816190	492.03975274	492.47132755	492.90288631	493.33442899	493.76595559	494.19746607	494.62896043	495.06043864	495.49190069	495.92334655	496.35477620	496.78618963	497.21758682	497.64896774	498.08033239	498.51168074	498.94301276	499.37432845	499.80562778	500.23691074	500.66817730	501.09942745	501.53066116	501.96187842	502.39307921	502.82426351	503.25543130	503.68658256	504.11771727	504.54883542	504.97993698	505.41102193	505.84209026	506.27314195	506.70417698	507.13519532	507.56619696	507.99718189	508.42815007	508.85910150	509.29003615	509.72095401	510.15185505	510.58273926	511.01360661	511.44445709	511.87529069	512.30610737	512.73690712	513.16768992	513.59845576	514.02920461	514.45993645	514.89065127	515.32134905	515.75202976	516.18269339	516.61333992	517.04396933	517.47458160	517.90517671	518.33575465	518.76631539	519.19685891	519.62738520	520.05789424	520.48838600	520.91886048	521.34931764	521.77975747	522.21017995	522.64058507	523.07097279	523.50134312	523.93169601	524.36203147	524.79234945	525.22264996	525.65293297	526.08319845	526.51344640	526.94367678	527.37388959	527.80408480	528.23426240	528.66442236	529.09456467	529.52468930	529.95479624	530.38488547	530.81495697	531.24501072	531.67504671	532.10506490	532.53506529	532.96504785	533.39501257	533.82495942	534.25488839	534.68479946	535.11469261	535.54456782	535.97442507	536.40426434	536.83408561	537.26388887	537.69367409	538.12344125	538.55319035	538.98292135	539.41263423	539.84232899	540.27200560	540.70166404	541.13130429	541.56092633	541.99053015	542.42011572	542.84968303	543.27923205	543.70876277	544.13827517	544.56776923	544.99724493	545.42670225	545.85614117	546.28556168	546.71496375	547.14434736	547.57371250	548.00305915	548.43238728	548.86169688	549.29098794	549.72026042	550.14951431	550.57874960	551.00796626	551.43716427	551.86634362	552.29550429	552.72464625	553.15376949	553.58287399	554.01195973	554.44102669	554.87007485	555.29910419	555.72811470	556.15710635	556.58607912	557.01503300	557.44396797	557.87288401	558.30178110	558.73065921	559.15951834	559.58835846	560.01717955	560.44598160	560.87476458	561.30352847	561.73227326	562.16099893	562.58970546	563.01839282	563.44706101	563.87571000	564.30433977	564.73295030	565.16154157	565.59011358	566.01866628	566.44719967	566.87571373	567.30420844	567.73268378	568.16113973	568.58957627	569.01799338	569.44639105	569.87476924	570.30312796	570.73146717	571.15978685	571.58808700	572.01636758	572.44462858	572.87286998	573.30109177	573.72929391	574.15747640	574.58563922	575.01378234	575.44190574	575.87000941	576.29809333	576.72615748	577.15420184	577.58222639	578.01023111	578.43821598	578.86618099	579.29412611	579.72205133	580.14995662	580.57784197	581.00570736	581.43355276	581.86137817	582.28918356	582.71696890	583.14473420	583.57247941	584.00020453	584.42790954	584.85559441	585.28325913	585.71090368	586.13852803	586.56613218	586.99371610	587.42127977	587.84882317	588.27634629	588.70384910	589.13133159	589.55879373	589.98623551	590.41365691	590.84105791	591.26843849	591.69579863	592.12313831	592.55045752	592.97775623	593.40503442	593.83229208	594.25952919	594.68674573	595.11394167	595.54111700	595.96827171	596.39540576	596.82251915	597.24961185	597.67668385	598.10373512	598.53076564	598.95777541	599.38476439	599.81173257	600.23867993	600.66560645	601.09251211	601.51939690	601.94626078	602.37310376	602.79992580	603.22672688	603.65350699	604.08026611	604.50700422	604.93372130	605.36041733	605.78709229	606.21374616	606.64037893	607.06699057	607.49358107	607.92015040	608.34669856	608.77322551	609.19973124	609.62621572	610.05267896	610.47912091	610.90554156	611.33194090	611.75831891	612.18467556	612.61101083	613.03732472	613.46361719	613.88988823	614.31613782	614.74236595	615.16857258	615.59475771	616.02092131	616.44706337	616.87318386	617.29928278	617.72536008	618.15141577	618.57744982	619.00346220	619.42945291	619.85542192	620.28136922	620.70729478	621.13319858	621.55908061	621.98494085	622.41077927	622.83659587	623.26239061	623.68816348	624.11391447	624.53964355	624.96535070	625.39103591	625.81669915	626.24234041	626.66795966	627.09355689	627.51913209	627.94468522	628.37021627	628.79572523	629.22121207	629.64667677	630.07211931	630.49753969	630.92293786	631.34831383	631.77366756	632.19899905	632.62430826	633.04959519	633.47485980	633.90010209	634.32532203	634.75051961	635.17569481	635.60084760	636.02597797	636.45108589	636.87617136	637.30123435	637.72627483	638.15129281	638.57628824	639.00126112	639.42621142	639.85113913	640.27604422	640.70092669	641.12578650	641.55062364	641.97543809	642.40022983	642.82499885	643.24974512	643.67446862	644.09916934	644.52384726	644.94850235	645.37313460	645.79774399	646.22233050	646.64689411	647.07143480	647.49595255	647.92044735	648.34491917	648.76936800	649.19379381	649.61819659	650.04257632	650.46693298	650.89126655	651.31557701	651.73986434	652.16412852	652.58836954	653.01258737	653.43678200	653.86095340	654.28510156	654.70922646	655.13332808	655.55740640	655.98146140	656.40549307	656.82950137	657.25348630	657.67744784	658.10138596	658.52530064	658.94919188	659.37305964	659.79690391	660.22072468	660.64452191	661.06829560	661.49204572	661.91577225	662.33947518	662.76315449	663.18681015	663.61044215	664.03405047	664.45763509	664.88119598	665.30473314	665.72824655	666.15173617	666.57520200	666.99864402	667.42206220	667.84545653	668.26882699	668.69217355	669.11549621	669.53879494	669.96206971	670.38532052	670.80854735	671.23175017	671.65492896	672.07808371	672.50121440	672.92432101	673.34740351	673.77046190	674.19349615	674.61650623	675.03949215	675.46245386	675.88539136	676.30830463	676.73119364	677.15405838	677.57689882	677.99971496	678.42250677	678.84527423	679.26801732	679.69073602	680.11343032	680.53610019	680.95874562	681.38136658	681.80396307	682.22653505	682.64908251	683.07160543	683.49410379	683.91657758	684.33902677	684.76145134	685.18385128	685.60622656	686.02857717	686.45090309	686.87320430	687.29548077	687.71773250	688.13995946	688.56216163	688.98433899	689.40649153	689.82861923	690.25072206	690.67280001	691.09485305	691.51688118	691.93888436	692.36086259	692.78281583	693.20474408	693.62664732	694.04852552	694.47037866	694.89220673	695.31400971	695.73578757	696.15754031	696.57926789	697.00097031	697.42264753	697.84429955	698.26592635	698.68752790	699.10910418	699.53065518	699.95218088	700.37368126	700.79515630	701.21660597	701.63803027	702.05942917	702.48080265	702.90215070	703.32347329	703.74477041	704.16604204	704.58728815	705.00850873	705.42970376	705.85087322	706.27201710	706.69313536	707.11422800	707.53529499	707.95633632	708.37735196	708.79834190	709.21930612	709.64024460	710.06115731	710.48204425	710.90290539	711.32374071	711.74455020	712.16533383	712.58609158	713.00682344	713.42752939	713.84820941	714.26886347	714.68949157	715.11009368	715.53066977	715.95121984	716.37174387	716.79224183	717.21271370	717.63315947	718.05357912	718.47397263	718.89433997	719.31468114	719.73499610	720.15528485	720.57554736	720.99578362	721.41599360	721.83617729	722.25633466	722.67646570	723.09657039	723.51664871	723.93670063	724.35672615	724.77672524	725.19669789	725.61664407	726.03656376	726.45645695	726.87632362	727.29616374	727.71597730	728.13576429	728.55552467	728.97525843	729.39496556	729.81464603	730.23429983	730.65392692	731.07352731	731.49310096	731.91264786	732.33216799	732.75166133	733.17112786	733.59056756	734.00998042	734.42936640	734.84872550	735.26805770	735.68736298	736.10664131	736.52589267	736.94511706	737.36431445	737.78348482	738.20262815	738.62174442	739.04083362	739.45989572	739.87893071	740.29793856	740.71691926	741.13587279	741.55479913	741.97369826	742.39257016	742.81141481	743.23023219	743.64902229	744.06778508	744.48652055	744.90522868	745.32390944	745.74256282	746.16118880	746.57978736	746.99835849	747.41690215	747.83541834	748.25390703	748.67236821	749.09080185	749.50920794	749.92758646	750.34593739	750.76426070	751.18255639	751.60082443	752.01906480	752.43727748	752.85546246	753.27361971	753.69174922	754.10985097	754.52792493	754.94597109	755.36398944	755.78197994	756.19994258	756.61787735	757.03578422	757.45366318	757.87151420	758.28933727	758.70713236	759.12489946	759.54263856	759.96034962	760.37803263	760.79568758	761.21331443	761.63091318	762.04848381	762.46602629	762.88354061	763.30102674	763.71848468	764.13591439	764.55331586	764.97068908	765.38803401	765.80535065	766.22263898	766.63989896	767.05713060	767.47433386	767.89150873	768.30865518	768.72577321	769.14286278	769.55992389	769.97695651	770.39396062	770.81093621	771.22788325	771.64480173	772.06169163	772.47855292	772.89538559	773.31218962	773.72896499	774.14571169	774.56242968	774.97911896	775.39577950	775.81241129	776.22901431	776.64558853	777.06213394	777.47865052	777.89513825	778.31159710	778.72802708	779.14442814	779.56080028	779.97714347	780.39345769	780.80974294	781.22599918	781.64222640	782.05842457	782.47459369	782.89073373	783.30684467	783.72292649	784.13897918	784.55500271	784.97099707	785.38696224	785.80289819	786.21880491	786.63468238	787.05053057	787.46634949	787.88213909	788.29789936	788.71363029	789.12933186	789.54500404	789.96064681	790.37626017	790.79184408	791.20739853	791.62292351	792.03841898	792.45388494	792.86932136	793.28472822	793.70010551	794.11545321	794.53077129	794.94605974	795.36131853	795.77654766	796.19174710	796.60691683	797.02205683	797.43716709	797.85224758	798.26729829	798.68231919	799.09731027	799.51227150	799.92720288	800.34210438	800.75697597	801.17181765	801.58662939	802.00141118	802.41616299	802.83088480	803.24557660	803.66023837	804.07487008	804.48947173	804.90404329	805.31858473	805.73309605	806.14757722	806.56202823	806.97644905	807.39083966	807.80520005	808.21953020	808.63383009	809.04809970	809.46233901	809.87654799	810.29072665	810.70487494	811.11899286	811.53308038	811.94713749	812.36116416	812.77516039	813.18912614	813.60306140	814.01696615	814.43084037	814.84468405	815.25849716	815.67227968	816.08603160	816.49975289	816.91344354	817.32710353	817.74073284	818.15433144	818.56789933	818.98143648	819.39494287	819.80841849	820.22186330	820.63527731	821.04866048	821.46201280	821.87533424	822.28862480	822.70188444	823.11511316	823.52831093	823.94147773	824.35461354	824.76771835	825.18079213	825.59383487	826.00684655	826.41982715	826.83277664	827.24569502	827.65858225	828.07143833	828.48426323	828.89705694	829.30981943	829.72255068	830.13525068	830.54791941	830.96055685	831.37316298	831.78573777	832.19828122	832.61079330	833.02327400	833.43572328	833.84814115	834.26052757	834.67288252	835.08520599	835.49749796	835.90975842	836.32198733	836.73418468	837.14635046	837.55848463	837.97058720	838.38265813	838.79469740	839.20670500	839.61868091	840.03062511	840.44253757	840.85441829	841.26626724	841.67808440	842.08986976	842.50162329	842.91334498	843.32503480	843.73669274	844.14831877	844.55991289	844.97147506	845.38300528	845.79450352	846.20596976	846.61740399	847.02880618	847.44017631	847.85151437	848.26282034	848.67409420	849.08533592	849.49654550	849.90772291	850.31886813	850.72998114	851.14106193	851.55211047	851.96312674	852.37411074	852.78506243	853.19598180	853.60686882	854.01772349	854.42854578	854.83933568	855.25009315	855.66081819	856.07151078	856.48217089	856.89279850	857.30339361	857.71395618	858.12448620	858.53498366	858.94544852	859.35588078	859.76628041	860.17664740	860.58698172	860.99728335	861.40755229	861.81778850	862.22799197	862.63816268	863.04830061	863.45840574	863.86847805	864.27851753	864.68852415	865.09849790	865.50843876	865.91834670	866.32822171	866.73806377	867.14787286	867.55764895	867.96739205	868.37710211	868.78677913	869.19642308	869.60603395	870.01561171	870.42515635	870.83466785	871.24414619	871.65359135	872.06300331	872.47238206	872.88172756	873.29103981	873.70031878	874.10956446	874.51877683	874.92795586	875.33710155	875.74621386	876.15529278	876.56433830	876.97335038	877.38232902	877.79127419	878.20018588	878.60906407	879.01790873	879.42671984	879.83549740	880.24424138	880.65295176	881.06162852	881.47027164	881.87888110	882.28745689	882.69599898	883.10450736	883.51298201	883.92142291	884.32983003	884.73820337	885.14654289	885.55484859	885.96312043	886.37135842	886.77956251	887.18773271	887.59586898	888.00397130	888.41203966	888.82007405	889.22807443	889.63604079	890.04397312	890.45187139	890.85973558	891.26756568	891.67536166	892.08312351	892.49085121	892.89854473	893.30620407	893.71382919	894.12142009	894.52897673	894.93649911	895.34398721	895.75144100	896.15886046	896.56624558	896.97359634	897.38091272	897.78819470	898.19544225	898.60265537	899.00983403	899.41697822	899.82408791	900.23116308	900.63820372	901.04520981	901.45218132	901.85911824	902.26602056	902.67288824	903.07972127	903.48651964	903.89328332	904.30001230	904.70670655	905.11336605	905.51999079	905.92658076	906.33313592	906.73965626	907.14614176	907.55259240	907.95900816	908.36538903	908.77173498	909.17804600	909.58432207	909.99056316	910.39676926	910.80294035	911.20907641	911.61517742	912.02124336	912.42727422	912.83326996	913.23923059	913.64515607	914.05104638	914.45690152	914.86272145	915.26850616	915.67425563	916.07996984	916.48564877	916.89129241	917.29690073	917.70247372	918.10801135	918.51351361	918.91898047	919.32441193	919.72980795	920.13516853	920.54049363	920.94578325	921.35103736	921.75625595	922.16143899	922.56658647	922.97169836	923.37677465	923.78181532	924.18682035	924.59178972	924.99672341	925.40162141	925.80648369	926.21131023	926.61610102	927.02085603	927.42557525	927.83025866	928.23490624	928.63951796	929.04409382	929.44863379	929.85313785	930.25760599	930.66203818	931.06643441	931.47079465	931.87511889	932.27940711	932.68365929	933.08787540	933.49205544	933.89619938	934.30030721	934.70437889	935.10841442	935.51241378	935.91637694	936.32030390	936.72419462	937.12804908	937.53186728	937.93564919	938.33939480	938.74310407	939.14677700	939.55041357	939.95401375	940.35757752	940.76110488	941.16459579	941.56805025	941.97146822	942.37484969	942.77819465	943.18150307	943.58477494	943.98801022	944.39120892	944.79437100	945.19749645	945.60058525	946.00363738	946.40665282	946.80963155	947.21257356	947.61547881	948.01834730	948.42117901	948.82397391	949.22673199	949.62945323	950.03213761	950.43478511	950.83739570	951.23996938	951.64250613	952.04500591	952.44746872	952.84989454	953.25228334	953.65463511	954.05694983	954.45922747	954.86146803	955.26367148	955.66583780	956.06796697	956.47005898	956.87211380	957.27413142	957.67611181	958.07805496	958.47996085	958.88182946	959.28366077	959.68545476	960.08721142	960.48893071	960.89061263	961.29225716	961.69386427	962.09543395	962.49696617	962.89846092	963.29991819	963.70133794	964.10272017	964.50406485	964.90537196	965.30664148	965.70787340	966.10906770	966.51022435	966.91134334	967.31242465	967.71346826	968.11447415	968.51544230	968.91637270	969.31726532	969.71812014	970.11893715	970.51971632	970.92045764	971.32116109	971.72182665	972.12245430	972.52304402	972.92359579	973.32410959	973.72458541	974.12502322	974.52542301	974.92578475	975.32610843	975.72639403	976.12664153	976.52685091	976.92702215	977.32715523	977.72725014	978.12730685	978.52732534	978.92730560	979.32724760	979.72715134	980.12701678	980.52684391	980.92663271	981.32638316	981.72609525	982.12576895	982.52540424	982.92500111	983.32455953	983.72407949	984.12356097	984.52300394	984.92240840	985.32177431	985.72110167	986.12039045	986.51964064	986.91885220	987.31802514	987.71715942	988.11625502	988.51531193	988.91433014	989.31330961	989.71225033	990.11115229	990.51001546	990.90883982	991.30762535	991.70637204	992.10507987	992.50374881	992.90237886	993.30096998	993.69952216	994.09803538	994.49650962	994.89494487	995.29334110	995.69169830	996.09001644	996.48829550	996.88653548	997.28473634	997.68289807	998.08102066	998.47910407	998.87714829	999.27515331	999.67311910	1000.07104565	1000.46893293	1000.86678093	1001.26458963	1001.66235901	1002.06008904	1002.45777972	1002.85543101	1003.25304291	1003.65061539	1004.04814844	1004.44564203	1004.84309615	1005.24051077	1005.63788588	1006.03522146	1006.43251749	1006.82977395	1007.22699082	1007.62416809	1008.02130573	1008.41840372	1008.81546205	1009.21248069	1009.60945963	1010.00639885	1010.40329832	1010.80015804	1011.19697798	1011.59375812	1011.99049844	1012.38719893	1012.78385955	1013.18048031	1013.57706117	1013.97360212	1014.37010314	1014.76656420	1015.16298530	1015.55936641	1015.95570751	1016.35200858	1016.74826960	1017.14449056	1017.54067144	1017.93681221	1018.33291286	1018.72897337	1019.12499372	1019.52097388	1019.91691385	1020.31281360
860.98000000	860.46000000	860.96000000	860.72000000	860.58000000	860.78000000	861.02000000	860.12000000	861.28000000	861.76000000	861.56000000	861.66000000	863.02000000	861.02000000	859.80000000	860.04000000	860.18000000	858.86000000	859.60000000	861.16000000	861.26000000	861.84000000	862.72000000	863.56000000	862.92000000	862.50000000	862.08000000	861.54000000	861.36000000	861.18000000	862.00000000	861.48000000	861.74000000	862.32000000	863.08000000	862.24000000	862.56000000	862.94000000	862.46000000	861.68000000	861.42000000	862.12000000	861.92000000	860.86000000	861.44000000	861.64000000	860.68000000	861.50000000	862.18000000	862.06000000	862.02000000	862.40000000	861.94000000	862.04000000	861.70000000	862.40000000	862.40000000	862.56000000	862.16000000	862.36000000	862.08000000	862.56000000	861.76000000	861.94000000	862.22000000	862.08000000	861.38000000	861.76000000	862.38000000	862.18000000	861.54000000	862.52000000	862.74000000	862.62000000	862.60000000	863.34000000	862.04000000	861.80000000	861.30000000	861.50000000	861.74000000	862.26000000	862.38000000	862.70000000	862.38000000	862.26000000	862.60000000	862.92000000	862.54000000	862.62000000	862.38000000	862.46000000	862.24000000	863.42000000	863.84000000	864.78000000	864.72000000	864.56000000	864.22000000	863.78000000	862.68000000	862.90000000	863.54000000	863.32000000	863.04000000	863.58000000	863.90000000	863.36000000	863.76000000	864.14000000	864.44000000	863.60000000	865.22000000	865.42000000	866.16000000	865.94000000	866.90000000	866.58000000	867.34000000	866.88000000	868.32000000	868.90000000	869.96000000	870.40000000	873.36000000	875.65000000	878.79000000	881.87000000	886.55000000	891.87000000	898.54000000	905.40000000	913.90000000	922.56000000	933.00000000	945.64000000	963.16000000	981.58000000	1005.32000000	1032.02000000	1061.22000000	1090.04000000	1120.78000000	1148.86000000	1173.54000000	1195.22000000	1218.20000000	1243.90000000	1275.16000000	1314.20000000	1358.82000000	1408.08000000	1456.36000000	1500.22000000	1537.14000000	1564.10000000	1579.36000000	1587.22000000	1592.44000000	1600.02000000	1618.88000000	1648.56000000	1691.84000000	1742.40000000	1798.14000000	1845.48000000	1884.36000000	1908.18000000	1916.72000000	1910.66000000	1903.58000000	1899.26000000	1904.00000000	1927.56000000	1969.24000000	2022.98000000	2082.64000000	2140.00000000	2182.60000000	2206.12000000	2209.72000000	2194.72000000	2168.86000000	2142.70000000	2123.40000000	2119.12000000	2137.78000000	2176.86000000	2232.44000000	2296.74000000	2356.98000000	2398.58000000	2419.26000000	2414.88000000	2390.02000000	2356.10000000	2324.50000000	2306.22000000	2309.76000000	2337.94000000	2386.40000000	2454.74000000	2530.28000000	2599.48000000	2652.30000000	2687.46000000	2693.62000000	2672.02000000	2633.30000000	2589.30000000	2544.72000000	2512.92000000	2501.64000000	2515.96000000	2550.52000000	2612.54000000	2690.88000000	2770.74000000	2835.80000000	2876.50000000	2880.22000000	2855.66000000	2812.54000000	2764.86000000	2734.00000000	2725.04000000	2747.52000000	2799.44000000	2880.30000000	2975.24000000	3071.84000000	3153.50000000	3215.36000000	3247.16000000	3244.56000000	3219.66000000	3169.26000000	3108.62000000	3045.30000000	2997.56000000	2971.36000000	2982.80000000	3023.18000000	3099.94000000	3195.54000000	3296.70000000	3384.02000000	3455.40000000	3488.72000000	3487.40000000	3455.54000000	3404.42000000	3345.82000000	3295.32000000	3269.60000000	3279.48000000	3326.68000000	3404.80000000	3508.30000000	3623.68000000	3734.84000000	3821.98000000	3886.72000000	3917.84000000	3909.52000000	3867.22000000	3806.14000000	3723.86000000	3643.80000000	3580.84000000	3541.98000000	3541.20000000	3584.34000000	3666.90000000	3777.88000000	3906.90000000	4043.22000000	4159.78000000	4248.10000000	4291.56000000	4293.30000000	4243.48000000	4168.42000000	4073.84000000	3984.20000000	3918.80000000	3893.22000000	3903.88000000	3964.72000000	4066.18000000	4187.64000000	4322.64000000	4453.88000000	4564.34000000	4645.44000000	4688.78000000	4688.82000000	4655.14000000	4586.92000000	4499.46000000	4401.16000000	4313.86000000	4247.52000000	4218.64000000	4235.64000000	4303.04000000	4412.20000000	4554.22000000	4709.36000000	4858.16000000	4986.32000000	5070.90000000	5107.62000000	5092.62000000	5028.68000000	4925.92000000	4804.30000000	4680.86000000	4575.46000000	4504.86000000	4482.50000000	4518.16000000	4608.12000000	4739.38000000	4899.16000000	5075.30000000	5240.70000000	5394.58000000	5516.68000000	5597.22000000	5628.58000000	5615.82000000	5546.12000000	5446.76000000	5328.28000000	5198.94000000	5080.12000000	4987.84000000	4930.80000000	4920.64000000	4967.26000000	5060.62000000	5195.54000000	5354.58000000	5520.66000000	5675.16000000	5797.94000000	5871.66000000	5894.68000000	5866.36000000	5792.92000000	5680.48000000	5553.16000000	5425.58000000	5312.52000000	5231.16000000	5205.60000000	5231.94000000	5316.10000000	5452.58000000	5624.26000000	5820.64000000	6024.42000000	6211.94000000	6375.20000000	6499.42000000	6557.94000000	6568.86000000	6530.02000000	6444.94000000	6313.18000000	6169.28000000	6005.84000000	5842.42000000	5692.48000000	5584.58000000	5523.24000000	5520.22000000	5578.22000000	5690.22000000	5847.76000000	6032.28000000	6236.68000000	6428.14000000	6596.82000000	6728.52000000	6806.42000000	6823.02000000	6780.04000000	6685.98000000	6552.90000000	6401.30000000	6244.56000000	6111.54000000	6015.06000000	5961.30000000	5963.36000000	6027.30000000	6144.56000000	6300.34000000	6485.40000000	6688.54000000	6885.76000000	7065.46000000	7214.00000000	7304.72000000	7325.80000000	7296.92000000	7234.70000000	7133.10000000	7019.50000000	6896.84000000	6755.38000000	6598.56000000	6444.18000000	6311.08000000	6222.02000000	6182.90000000	6197.06000000	6280.20000000	6421.36000000	6605.46000000	6820.60000000	7048.36000000	7265.46000000	7455.12000000	7603.38000000	7697.08000000	7725.48000000	7682.64000000	7578.10000000	7415.46000000	7221.68000000	7013.54000000	6815.46000000	6633.10000000	6490.48000000	6389.56000000	6342.34000000	6372.24000000	6450.71000000	6562.57000000	6719.85000000	6902.41000000	7079.69000000	7263.22000000	7450.50000000	7608.00000000	7733.48000000	7812.68000000	7844.84000000	7833.36000000	7782.02000000	7682.10000000	7551.56000000	7399.80000000	7229.88000000	7046.66000000	6884.94000000	6742.98000000	6640.86000000	6580.04000000	6571.06000000	6617.26000000	6711.58000000	6849.34000000	7028.06000000	7230.46000000	7434.70000000	7631.40000000	7800.46000000	7933.80000000	8011.78000000	8032.06000000	7999.66000000	7905.18000000	7755.02000000	7580.60000000	7381.34000000	7173.18000000	6985.04000000	6819.64000000	6683.02000000	6603.28000000	6578.86000000	6604.94000000	6692.12000000	6830.96000000	7006.42000000	7211.48000000	7441.26000000	7669.14000000	7895.82000000	8107.38000000	8289.30000000	8434.14000000	8546.08000000	8604.86000000	8609.74000000	8574.56000000	8483.10000000	8343.80000000	8177.42000000	7991.88000000	7785.82000000	7588.68000000	7408.30000000	7246.10000000	7122.02000000	7035.14000000	7000.78000000	7020.14000000	7098.54000000	7219.52000000	7386.04000000	7587.34000000	7806.76000000	8024.46000000	8236.20000000	8422.86000000	8569.90000000	8664.98000000	8710.68000000	8699.60000000	8637.38000000	8519.06000000	8363.06000000	8183.76000000	7991.84000000	7796.50000000	7615.04000000	7465.24000000	7346.84000000	7270.16000000	7243.46000000	7272.26000000	7345.06000000	7473.20000000	7631.48000000	7830.22000000	8050.40000000	8285.94000000	8514.58000000	8737.62000000	8931.90000000	9090.22000000	9206.78000000	9277.82000000	9302.90000000	9275.00000000	9207.28000000	9091.86000000	8938.84000000	8753.74000000	8550.30000000	8328.34000000	8099.78000000	7874.48000000	7665.38000000	7478.26000000	7323.98000000	7212.74000000	7149.78000000	7133.56000000	7171.02000000	7265.40000000	7399.98000000	7573.28000000	7772.48000000	7995.58000000	8212.64000000	8428.84000000	8629.42000000	8800.64000000	8923.32000000	9003.02000000	9033.54000000	9004.82000000	8925.92000000	8803.98000000	8647.24000000	8455.04000000	8246.58000000	8041.96000000	7840.36000000	7657.80000000	7507.56000000	7392.92000000	7314.82000000	7286.36000000	7297.66000000	7356.42000000	7456.04000000	7585.50000000	7750.22000000	7934.90000000	8127.94000000	8323.74000000	8517.90000000	8686.00000000	8833.28000000	8961.08000000	9051.90000000	9111.50000000	9134.88000000	9123.16000000	9070.88000000	8996.14000000	8879.94000000	8745.10000000	8583.74000000	8411.06000000	8215.66000000	8030.14000000	7835.70000000	7659.24000000	7499.60000000	7368.66000000	7266.46000000	7204.46000000	7186.00000000	7204.50000000	7272.02000000	7379.14000000	7528.30000000	7702.36000000	7904.02000000	8116.96000000	8327.68000000	8533.94000000	8724.22000000	8885.98000000	9005.92000000	9091.14000000	9125.26000000	9122.02000000	9066.94000000	8974.74000000	8839.22000000	8669.52000000	8469.18000000	8251.30000000	8029.40000000	7818.60000000	7622.20000000	7442.54000000	7298.74000000	7188.98000000	7115.00000000	7088.44000000	7103.18000000	7155.76000000	7244.16000000	7369.48000000	7520.02000000	7691.88000000	7880.34000000	8080.26000000	8274.70000000	8462.20000000	8644.60000000	8812.72000000	8958.42000000	9078.10000000	9178.46000000	9244.74000000	9278.52000000	9277.94000000	9249.46000000	9179.46000000	9087.44000000	8965.84000000	8829.34000000	8674.22000000	8507.66000000	8332.86000000	8158.20000000	7980.74000000	7820.84000000	7677.48000000	7554.86000000	7457.06000000	7396.76000000	7367.64000000	7376.00000000	7421.12000000	7505.92000000	7625.18000000	7767.78000000	7944.46000000	8133.58000000	8337.08000000	8535.74000000	8740.14000000	8917.98000000	9078.86000000	9204.10000000	9298.52000000	9349.04000000	9359.02000000	9327.70000000	9257.52000000	9149.68000000	9015.12000000	8857.00000000	8678.30000000	8494.98000000	8303.42000000	8112.58000000	7938.26000000	7777.20000000	7636.84000000	7529.82000000	7451.06000000	7403.70000000	7400.50000000	7432.46000000	7501.26000000	7607.88000000	7743.68000000	7909.12000000	8097.54000000	8299.96000000	8509.98000000	8733.54000000	8949.78000000	9154.88000000	9355.30000000	9529.20000000	9672.78000000	9788.60000000	9878.34000000	9921.18000000	9946.92000000	9944.28000000	9916.72000000	9866.68000000	9802.02000000	9712.96000000	9603.88000000	9472.20000000	9329.50000000	9173.28000000	9009.14000000	8845.78000000	8683.52000000	8519.92000000	8362.46000000	8217.12000000	8082.16000000	7970.26000000	7882.12000000	7820.68000000	7795.34000000	7805.36000000	7851.34000000	7940.94000000	8074.80000000	8227.14000000	8396.32000000	8564.36000000	8736.22000000	8928.34000000	9134.74000000	9356.22000000	9573.52000000	9765.32000000	9913.12000000	10020.84000000	10082.00000000	10119.02000000	10121.28000000	10086.28000000	10024.00000000	9931.56000000	9806.58000000	9663.40000000	9498.92000000	9319.90000000	9129.48000000	8942.04000000	8760.82000000	8588.28000000	8431.68000000	8297.04000000	8192.72000000	8109.38000000	8063.52000000	8043.34000000	8059.46000000	8098.06000000	8172.56000000	8271.80000000	8398.06000000	8538.20000000	8705.54000000	8883.52000000	9066.08000000	9247.86000000	9434.80000000	9602.52000000	9761.00000000	9915.54000000	10048.36000000	10162.14000000	10266.40000000	10346.94000000	10393.02000000	10427.46000000	10429.98000000	10403.00000000	10343.60000000	10262.98000000	10152.88000000	10023.26000000	9870.64000000	9702.02000000	9526.40000000	9336.68000000	9135.42000000	8926.56000000	8720.38000000	8512.32000000	8313.56000000	8135.60000000	7971.12000000	7835.12000000	7716.00000000	7627.82000000	7568.38000000	7534.04000000	7531.74000000	7557.90000000	7603.70000000	7678.62000000	7786.38000000	7912.14000000	8055.80000000	8219.40000000	8386.82000000	8560.62000000	8730.80000000	8904.44000000	9065.86000000	9218.60000000	9351.22000000	9462.20000000	9548.44000000	9610.08000000	9633.78000000	9632.78000000	9599.34000000	9538.94000000	9447.40000000	9322.80000000	9177.42000000	9009.30000000	8826.14000000	8633.18000000	8447.90000000	8253.30000000	8074.90000000	7896.28000000	7732.14000000	7584.78000000	7449.80000000	7332.20000000	7234.76000000	7163.52000000	7112.00000000	7099.84000000	7103.38000000	7133.06000000	7183.98000000	7255.86000000	7336.94000000	7442.30000000	7567.38000000	7691.30000000	7827.04000000	7964.72000000	8098.94000000	8233.84000000	8365.46000000	8480.94000000	8591.98000000	8692.84000000	8779.12000000	8855.66000000	8921.48000000	8968.36000000	8998.96000000	9013.82000000	9005.68000000	8981.08000000	8945.32000000	8891.38000000	8816.36000000	8728.02000000	8629.62000000	8511.30000000	8382.44000000	8243.36000000	8098.70000000	7936.18000000	7775.36000000	7617.18000000	7457.16000000	7302.96000000	7160.18000000	7024.46000000	6895.68000000	6785.86000000	6697.66000000	6626.24000000	6564.58000000	6522.88000000	6500.90000000	6495.92000000	6518.84000000	6573.10000000	6644.84000000	6731.02000000	6826.86000000	6931.96000000	7039.06000000	7149.50000000	7267.46000000	7386.16000000	7502.58000000	7613.74000000	7715.46000000	7803.80000000	7881.16000000	7933.18000000	7974.78000000	7998.20000000	7999.92000000	7970.68000000	7924.40000000	7858.80000000	7776.98000000	7672.88000000	7561.82000000	7436.80000000	7296.98000000	7148.30000000	6998.44000000	6841.48000000	6683.70000000	6524.34000000	6369.30000000	6218.32000000	6076.42000000	5948.88000000	5833.46000000	5733.72000000	5649.30000000	5583.08000000	5528.90000000	5492.06000000	5466.04000000	5452.64000000	5453.94000000	5469.34000000	5494.90000000	5526.62000000	5572.74000000	5622.60000000	5673.28000000	5729.40000000	5801.36000000	5871.22000000	5949.16000000	6027.74000000	6113.72000000	6183.02000000	6249.32000000	6305.80000000	6362.12000000	6408.78000000	6446.92000000	6467.72000000	6459.80000000	6429.98000000	6391.40000000	6359.04000000	6348.98000000	6362.18000000	6381.50000000	6383.32000000	6363.48000000	6316.40000000	6245.54000000	6159.80000000	6067.50000000	5972.18000000	5867.98000000	5757.66000000	5639.70000000	5518.00000000	5391.90000000	5276.48000000	5162.26000000	5061.22000000	4963.32000000	4874.78000000	4777.60000000	4693.80000000	4612.72000000	4538.20000000	4472.36000000	4420.34000000	4367.98000000	4327.50000000	4305.92000000	4300.66000000	4304.94000000	4328.22000000	4353.78000000	4380.74000000	4407.88000000	4436.30000000	4461.48000000	4493.48000000	4523.42000000	4552.04000000	4583.90000000	4614.36000000	4641.26000000	4671.18000000	4698.06000000	4710.28000000	4721.42000000	4723.54000000	4717.46000000	4701.72000000	4687.28000000	4664.06000000	4635.78000000	4603.96000000	4565.56000000	4518.96000000	4464.24000000	4408.62000000	4347.18000000	4283.06000000	4216.28000000	4154.68000000	4088.86000000	4018.34000000	3955.40000000	3891.64000000	3832.92000000	3780.98000000	3733.82000000	3686.68000000	3648.70000000	3611.22000000	3575.70000000	3551.48000000	3534.88000000	3522.74000000	3516.50000000	3522.22000000	3528.38000000	3537.48000000	3555.26000000	3580.58000000	3607.40000000	3639.22000000	3671.10000000	3706.64000000	3741.62000000	3772.68000000	3806.34000000	3844.26000000	3876.58000000	3909.80000000	3945.40000000	3976.20000000	4007.40000000	4034.60000000	4059.02000000	4076.56000000	4097.62000000	4107.92000000	4119.28000000	4121.96000000	4123.32000000	4115.68000000	4102.68000000	4083.06000000	4064.10000000	4036.46000000	4006.14000000	3974.92000000	3937.84000000	3894.32000000	3850.44000000	3801.32000000	3749.32000000	3691.62000000	3628.60000000	3568.52000000	3500.80000000	3434.34000000	3371.84000000	3308.02000000	3240.78000000	3179.40000000	3115.98000000	3052.16000000	2994.44000000	2936.10000000	2879.90000000	2830.62000000	2783.46000000	2740.90000000	2702.44000000	2667.46000000	2635.32000000	2609.68000000	2587.98000000	2574.16000000	2568.44000000	2566.22000000	2568.10000000	2572.62000000	2583.00000000	2595.56000000	2611.16000000	2633.68000000	2658.78000000	2678.22000000	2702.52000000	2728.96000000	2754.28000000	2777.44000000	2804.08000000	2826.90000000	2845.22000000	2861.82000000	2879.74000000	2895.00000000	2905.18000000	2913.28000000	2916.98000000	2918.48000000	2913.08000000	2906.56000000	2895.94000000	2881.90000000	2860.72000000	2840.76000000	2816.30000000	2793.82000000	2766.12000000	2736.70000000	2703.08000000	2668.20000000	2630.48000000	2593.16000000	2556.86000000	2523.92000000	2489.60000000	2454.10000000	2422.46000000	2390.64000000	2353.92000000	2323.14000000	2295.48000000	2267.32000000	2238.12000000	2215.08000000	2195.32000000	2177.58000000	2160.94000000	2152.12000000	2144.78000000	2134.26000000	2124.30000000	2119.52000000	2114.12000000	2114.02000000	2114.88000000	2118.48000000	2120.46000000	2126.94000000	2127.84000000	2132.02000000	2133.46000000	2134.88000000	2134.18000000	2137.18000000	2139.72000000	2142.88000000	2146.80000000	2150.98000000	2152.06000000	2150.98000000	2151.58000000	2149.88000000	2146.98000000	2146.90000000	2146.58000000	2145.30000000	2145.64000000	2143.68000000	2138.68000000	2133.14000000	2127.02000000	2119.82000000	2113.14000000	2108.38000000	2102.16000000	2095.08000000	2089.52000000	2083.18000000	2073.34000000	2066.46000000	2057.72000000	2047.76000000	2036.16000000	2027.88000000	2014.82000000	2000.96000000	1983.20000000	1968.14000000	1950.32000000	1936.02000000	1923.42000000	1912.30000000	1899.52000000	1887.80000000	1875.72000000	1861.12000000	1849.56000000	1838.30000000	1827.02000000	1816.20000000	1806.56000000	1796.94000000	1787.76000000	1782.20000000	1775.26000000	1773.04000000	1770.06000000	1769.52000000	1768.74000000	1771.08000000	1774.22000000	1778.76000000	1783.32000000	1787.16000000	1793.60000000	1800.34000000	1808.68000000	1815.78000000	1826.88000000	1834.28000000	1842.12000000	1851.60000000	1862.38000000	1868.12000000	1875.82000000	1883.22000000	1888.30000000	1892.18000000	1897.30000000	1899.10000000	1899.44000000	1898.68000000	1898.48000000	1894.02000000	1889.06000000	1884.70000000	1877.00000000	1867.82000000	1858.72000000	1852.46000000	1841.06000000	1831.38000000	1819.26000000	1808.94000000	1794.16000000	1779.94000000	1765.42000000	1750.78000000	1734.30000000	1717.30000000	1699.88000000	1683.24000000	1668.46000000	1653.96000000	1641.26000000	1630.04000000	1617.78000000	1605.38000000	1593.66000000	1585.22000000	1574.90000000	1565.24000000	1555.88000000	1547.56000000	1537.12000000	1528.42000000	1520.92000000	1514.02000000	1505.28000000	1499.26000000	1495.92000000	1490.72000000	1486.26000000	1483.16000000	1479.20000000	1475.12000000	1474.22000000	1472.64000000	1473.12000000	1473.40000000	1473.66000000	1472.52000000	1471.92000000	1470.74000000	1471.54000000	1471.20000000	1469.90000000	1471.82000000	1473.48000000	1474.96000000	1475.94000000	1477.36000000	1475.58000000	1477.38000000	1474.98000000	1476.80000000	1478.10000000	1481.20000000	1480.00000000	1481.30000000	1478.92000000	1480.42000000	1478.90000000	1478.78000000	1477.28000000	1476.44000000	1471.70000000	1466.96000000	1463.72000000	1460.08000000	1456.56000000	1455.46000000	1455.30000000	1452.02000000	1449.32000000	1446.74000000	1441.40000000	1436.76000000	1433.70000000	1429.50000000	1422.66000000	1417.36000000	1411.46000000	1406.18000000	1400.00000000	1396.90000000	1392.02000000	1386.84000000	1380.34000000	1375.46000000	1368.98000000	1363.74000000	1358.34000000	1352.12000000	1346.74000000	1340.02000000	1334.46000000	1329.02000000	1325.00000000	1319.24000000	1314.04000000	1307.04000000	1300.82000000	1294.08000000	1288.66000000	1284.56000000	1280.96000000	1274.44000000	1269.66000000	1264.52000000	1259.90000000	1254.34000000	1250.78000000	1247.58000000	1244.26000000	1238.66000000	1235.54000000	1232.68000000	1228.74000000	1225.64000000	1222.96000000	1220.40000000	1217.10000000	1212.82000000	1209.70000000	1206.94000000	1202.70000000	1200.16000000	1198.52000000	1194.76000000	1192.10000000	1189.78000000	1186.82000000	1182.20000000	1179.10000000	1176.28000000	1171.58000000	1166.28000000	1161.00000000	1154.78000000	1149.24000000	1145.74000000	1142.12000000	1140.28000000	1137.32000000	1134.92000000	1131.70000000	1129.46000000	1125.36000000	1123.52000000	1120.08000000	1117.28000000	1113.62000000	1110.76000000	1107.06000000	1102.02000000	1096.44000000	1092.04000000	1088.18000000	1084.54000000	1082.40000000	1080.20000000	1077.24000000	1074.58000000	1071.74000000	1068.48000000	1064.52000000	1063.02000000	1059.78000000	1057.96000000	1055.10000000	1054.48000000	1050.96000000	1048.96000000	1045.20000000	1042.64000000	1038.62000000	1036.54000000	1034.36000000	1033.50000000	1031.82000000	1029.36000000	1027.36000000	1025.14000000	1021.56000000	1018.86000000	1018.78000000	1016.70000000	1014.98000000	1013.18000000	1011.90000000	1010.08000000	1008.66000000	1006.92000000	1005.46000000	1003.94000000	1001.86000000	998.78000000	996.70000000	995.46000000	992.94000000	990.88000000	989.34000000	986.44000000	984.42000000	983.12000000	980.86000000	979.78000000	978.92000000	977.02000000	975.30000000	972.74000000	970.40000000	967.68000000	965.46000000	963.36000000	962.70000000	961.66000000	960.18000000	958.66000000	956.88000000	955.40000000	952.54000000	950.40000000	947.36000000	945.14000000	942.48000000	940.50000000	938.66000000	937.38000000	935.54000000	933.88000000	932.18000000	930.16000000	928.36000000	926.48000000	924.40000000	923.66000000	922.76000000	921.36000000	919.68000000	917.88000000	915.98000000	914.38000000	912.94000000	911.80000000	911.08000000	908.62000000	907.16000000	905.16000000	902.62000000	900.76000000	899.94000000	898.06000000	897.14000000	897.22000000	896.06000000	894.32000000	893.60000000	892.40000000	891.30000000	891.02000000	890.02000000	889.16000000	888.12000000	886.98000000	884.86000000	884.14000000	882.86000000	881.48000000	879.96000000	878.78000000	878.20000000	877.32000000	878.28000000	877.68000000	877.34000000	876.70000000	876.10000000	874.34000000	873.72000000	873.28000000	871.78000000	870.66000000	869.64000000	869.44000000	868.76000000	868.58000000	868.04000000	867.86000000	867.94000000	867.36000000	866.66000000	865.90000000	864.86000000	863.26000000	862.74000000	862.12000000	862.18000000	861.62000000	861.62000000	860.96000000	860.34000000	860.06000000	860.44000000	859.70000000	859.82000000	860.46000000	860.00000000	859.30000000	859.00000000	858.68000000	858.06000000	857.66000000	857.52500000	857.56666667
