PE UV       SUBTECH     SPECTRUM    ASCII       PEDS        4.00        
   -1
CICIMAUCR0225-1.Sample.ASC
24/05/27
14:30:23.00
24/05/27
14:30:23.00
Vinicio Soto Monge
C. resplendens, F
250,000000
1
Lambda 1050
1050L1511233
PerkinElmer UV WinLab 6.3.2.0749 / 2.02.05 Lambda 900 UV/VIS/NIR, Aug  7 2015 09:38:08

0
0
3350/servo 860,8/2
0
0
UV/VIS
1
1
1
DoubleDePol,CommonBeamDepol,RBeamAtt,SBeamAtt,60mm sphere, WB InGaAs Detector
0
0
0
0
Program
Program
3350/servo 860,8/2
3350/0,2 860,8/0,2
3350/0,2 860,8/0,2
0
15.00
 
 
 
0
 
860,8
319,2
860,8
Front
100
on
S:100 R:100
0
0
0
0
 
0
 
 
 
0
 
 
0
0
0
0
0
 
 
 
 
0
0


0
0
#HDR
-1
-1
#GR
nm
%R
1.0
0.0
2500,000000
-1,000000
2251
8
70,476400
5,457100
#DATA
2500.000000	8.833564
2499.000000	8.978633
2498.000000	8.744746
2497.000000	8.919210
2496.000000	8.762404
2495.000000	8.741257
2494.000000	8.789261
2493.000000	8.840860
2492.000000	8.708479
2491.000000	8.674538
2490.000000	8.619238
2489.000000	8.696637
2488.000000	8.666713
2487.000000	8.626217
2486.000000	8.699597
2485.000000	8.659312
2484.000000	8.622093
2483.000000	8.651276
2482.000000	8.593650
2481.000000	8.615009
2480.000000	8.577367
2479.000000	8.591536
2478.000000	8.592804
2477.000000	8.654977
2476.000000	8.682045
2475.000000	8.603695
2474.000000	8.644615
2473.000000	8.613317
2472.000000	8.658466
2471.000000	8.631504
2470.000000	8.663224
2469.000000	8.638376
2468.000000	8.654448
2467.000000	8.671577
2466.000000	8.685217
2465.000000	8.706681
2464.000000	8.680459
2463.000000	8.762087
2462.000000	8.792750
2461.000000	8.811888
2460.000000	8.874484
2459.000000	8.934647
2458.000000	8.953680
2457.000000	8.998511
2456.000000	9.069460
2455.000000	9.117147
2454.000000	9.193699
2453.000000	9.277019
2452.000000	9.334221
2451.000000	9.397451
2450.000000	9.484895
2449.000000	9.544529
2448.000000	9.610403
2447.000000	9.664751
2446.000000	9.762556
2445.000000	9.838157
2444.000000	9.911431
2443.000000	10.010611
2442.000000	10.075004
2441.000000	10.128612
2440.000000	10.211509
2439.000000	10.261522
2438.000000	10.347379
2437.000000	10.434505
2436.000000	10.498052
2435.000000	10.576085
2434.000000	10.619436
2433.000000	10.660884
2432.000000	10.726546
2431.000000	10.821074
2430.000000	10.846873
2429.000000	10.890542
2428.000000	10.942669
2427.000000	11.001776
2426.000000	11.051471
2425.000000	11.097043
2424.000000	11.147056
2423.000000	11.180151
2422.000000	11.200664
2421.000000	11.237354
2420.000000	11.288636
2419.000000	11.337168
2418.000000	11.368572
2417.000000	11.392257
2416.000000	11.413509
2415.000000	11.450623
2414.000000	11.500107
2413.000000	11.523474
2412.000000	11.560165
2411.000000	11.587127
2410.000000	11.606477
2409.000000	11.637563
2408.000000	11.661565
2407.000000	11.694872
2406.000000	11.732196
2405.000000	11.754718
2404.000000	11.785593
2403.000000	11.821966
2402.000000	11.858021
2401.000000	11.901796
2400.000000	11.943561
2399.000000	11.982155
2398.000000	12.005311
2397.000000	12.047499
2396.000000	12.077634
2395.000000	12.108086
2394.000000	12.143507
2393.000000	12.177448
2392.000000	12.205574
2391.000000	12.234863
2390.000000	12.246388
2389.000000	12.270284
2388.000000	12.293017
2387.000000	12.314058
2386.000000	12.333197
2385.000000	12.339541
2384.000000	12.351912
2383.000000	12.356776
2382.000000	12.361428
2381.000000	12.358890
2380.000000	12.345779
2379.000000	12.340175
2378.000000	12.341127
2377.000000	12.334360
2376.000000	12.322094
2375.000000	12.306023
2374.000000	12.298938
2373.000000	12.274196
2372.000000	12.253789
2371.000000	12.230739
2370.000000	12.195000
2369.000000	12.161165
2368.000000	12.121514
2367.000000	12.078480
2366.000000	12.018739
2365.000000	11.964286
2364.000000	11.909938
2363.000000	11.844382
2362.000000	11.791831
2361.000000	11.744144
2360.000000	11.680280
2359.000000	11.607428
2358.000000	11.534365
2357.000000	11.484987
2356.000000	11.460350
2355.000000	11.421334
2354.000000	11.382952
2353.000000	11.363285
2352.000000	11.352183
2351.000000	11.358210
2350.000000	11.368572
2349.000000	11.376079
2348.000000	11.387604
2347.000000	11.423660
2346.000000	11.477268
2345.000000	11.509729
2344.000000	11.554878
2343.000000	11.612927
2342.000000	11.654375
2341.000000	11.688316
2340.000000	11.722997
2339.000000	11.747951
2338.000000	11.780412
2337.000000	11.797752
2336.000000	11.805894
2335.000000	11.811498
2334.000000	11.792888
2333.000000	11.763705
2332.000000	11.740655
2331.000000	11.704388
2330.000000	11.665583
2329.000000	11.602670
2328.000000	11.546525
2327.000000	11.496935
2326.000000	11.414990
2325.000000	11.337909
2324.000000	11.264105
2323.000000	11.170741
2322.000000	11.068600
2321.000000	10.973967
2320.000000	10.864742
2319.000000	10.741984
2318.000000	10.628001
2317.000000	10.491390
2316.000000	10.368314
2315.000000	10.249045
2314.000000	10.124700
2313.000000	10.008497
2312.000000	9.901915
2311.000000	9.789518
2310.000000	9.707362
2309.000000	9.624571
2308.000000	9.558381
2307.000000	9.517990
2306.000000	9.484577
2305.000000	9.468506
2304.000000	9.502024
2303.000000	9.531524
2302.000000	9.546856
2301.000000	9.608288
2300.000000	9.691607
2299.000000	9.772601
2298.000000	9.873895
2297.000000	9.957849
2296.000000	10.058087
2295.000000	10.165725
2294.000000	10.265751
2293.000000	10.341140
2292.000000	10.414415
2291.000000	10.459670
2290.000000	10.521525
2289.000000	10.561599
2288.000000	10.567309
2287.000000	10.582217
2286.000000	10.573970
2285.000000	10.562127
2284.000000	10.510846
2283.000000	10.474896
2282.000000	10.454066
2281.000000	10.389884
2280.000000	10.332999
2279.000000	10.277382
2278.000000	10.218910
2277.000000	10.158429
2276.000000	10.092556
2275.000000	10.045610
2274.000000	10.008285
2273.000000	9.989253
2272.000000	9.972652
2271.000000	9.976987
2270.000000	9.971806
2269.000000	9.997500
2268.000000	10.041592
2267.000000	10.119625
2266.000000	10.195754
2265.000000	10.305930
2264.000000	10.438946
2263.000000	10.607277
2262.000000	10.781740
2261.000000	10.961173
2260.000000	11.180363
2259.000000	11.427255
2258.000000	11.696881
2257.000000	11.939015
2256.000000	12.207583
2255.000000	12.475728
2254.000000	12.751063
2253.000000	13.023226
2252.000000	13.284393
2251.000000	13.525575
2250.000000	13.750898
2249.000000	13.998953
2248.000000	14.199110
2247.000000	14.392395
2246.000000	14.572568
2245.000000	14.748618
2244.000000	14.908701
2243.000000	15.039179
2242.000000	15.179913
2241.000000	15.287551
2240.000000	15.410310
2239.000000	15.540788
2238.000000	15.628337
2237.000000	15.710282
2236.000000	15.796456
2235.000000	15.870577
2234.000000	15.947235
2233.000000	15.987732
2232.000000	16.042714
2231.000000	16.095899
2230.000000	16.127514
2229.000000	16.159763
2228.000000	16.169597
2227.000000	16.191167
2226.000000	16.210516
2225.000000	16.209882
2224.000000	16.222464
2223.000000	16.192964
2222.000000	16.183342
2221.000000	16.169702
2220.000000	16.145912
2219.000000	16.105309
2218.000000	16.087229
2217.000000	16.044829
2216.000000	16.035736
2215.000000	15.995239
2214.000000	15.954213
2213.000000	15.952627
2212.000000	15.915091
2211.000000	15.879247
2210.000000	15.829234
2209.000000	15.836107
2208.000000	15.816123
2207.000000	15.785037
2206.000000	15.760400
2205.000000	15.757757
2204.000000	15.712079
2203.000000	15.708801
2202.000000	15.686174
2201.000000	15.673909
2200.000000	15.628971
2199.000000	15.644091
2198.000000	15.650224
2197.000000	15.605815
2196.000000	15.598942
2195.000000	15.605392
2194.000000	15.575363
2193.000000	15.563415
2192.000000	15.561935
2191.000000	15.567645
2190.000000	15.552630
2189.000000	15.518689
2188.000000	15.528522
2187.000000	15.518160
2186.000000	15.514988
2185.000000	15.476924
2184.000000	15.470368
2183.000000	15.442877
2182.000000	15.436638
2181.000000	15.417500
2180.000000	15.385780
2179.000000	15.386625
2178.000000	15.388952
2177.000000	15.379224
2176.000000	15.384722
2175.000000	15.360086
2174.000000	15.374043
2173.000000	15.371082
2172.000000	15.360826
2171.000000	15.366007
2170.000000	15.393075
2169.000000	15.397516
2168.000000	15.411579
2167.000000	15.425536
2166.000000	15.437590
2165.000000	15.452499
2164.000000	15.490881
2163.000000	15.502829
2162.000000	15.523659
2161.000000	15.552736
2160.000000	15.559397
2159.000000	15.608987
2158.000000	15.635844
2157.000000	15.680570
2156.000000	15.701717
2155.000000	15.742743
2154.000000	15.791275
2153.000000	15.825322
2152.000000	15.873537
2151.000000	15.915091
2150.000000	15.951993
2149.000000	15.986780
2148.000000	16.051173
2147.000000	16.088815
2146.000000	16.137242
2145.000000	16.163993
2144.000000	16.186197
2143.000000	16.227328
2142.000000	16.279879
2141.000000	16.316040
2140.000000	16.333910
2139.000000	16.377684
2138.000000	16.404224
2137.000000	16.427908
2136.000000	16.462167
2135.000000	16.486909
2134.000000	16.498328
2133.000000	16.513766
2132.000000	16.532269
2131.000000	16.543054
2130.000000	16.549821
2129.000000	16.554579
2128.000000	16.556588
2127.000000	16.568854
2126.000000	16.570863
2125.000000	16.544958
2124.000000	16.543794
2123.000000	16.546438
2122.000000	16.517678
2121.000000	16.503403
2120.000000	16.479507
2119.000000	16.472634
2118.000000	16.455400
2117.000000	16.440702
2116.000000	16.422410
2115.000000	16.386883
2114.000000	16.355268
2113.000000	16.334861
2112.000000	16.311705
2111.000000	16.289924
2110.000000	16.260529
2109.000000	16.221407
2108.000000	16.191695
2107.000000	16.167482
2106.000000	16.135867
2105.000000	16.098754
2104.000000	16.062275
2103.000000	16.026537
2102.000000	16.006870
2101.000000	15.973034
2100.000000	15.933384
2099.000000	15.901029
2098.000000	15.873009
2097.000000	15.858840
2096.000000	15.836741
2095.000000	15.805761
2094.000000	15.779856
2093.000000	15.756488
2092.000000	15.737350
2091.000000	15.710916
2090.000000	15.695796
2089.000000	15.680147
2088.000000	15.659740
2087.000000	15.643668
2086.000000	15.613851
2085.000000	15.577584
2084.000000	15.550198
2083.000000	15.528417
2082.000000	15.506741
2081.000000	15.465398
2080.000000	15.431457
2079.000000	15.402169
2078.000000	15.359557
2077.000000	15.318532
2076.000000	15.289455
2075.000000	15.245892
2074.000000	15.208778
2073.000000	15.159400
2072.000000	15.114780
2071.000000	15.083482
2070.000000	15.030191
2069.000000	14.979438
2068.000000	14.938836
2067.000000	14.891255
2066.000000	14.846106
2065.000000	14.799794
2064.000000	14.758663
2063.000000	14.723241
2062.000000	14.687503
2061.000000	14.643305
2060.000000	14.609893
2059.000000	14.595618
2058.000000	14.580498
2057.000000	14.568021
2056.000000	14.563898
2055.000000	14.570771
2054.000000	14.590755
2053.000000	14.614016
2052.000000	14.651870
2051.000000	14.698393
2050.000000	14.745869
2049.000000	14.817769
2048.000000	14.899185
2047.000000	14.970979
2046.000000	15.046686
2045.000000	15.141954
2044.000000	15.242508
2043.000000	15.323184
2042.000000	15.430717
2041.000000	15.544066
2040.000000	15.630557
2039.000000	15.724556
2038.000000	15.814854
2037.000000	15.899231
2036.000000	15.969968
2035.000000	16.045886
2034.000000	16.129840
2033.000000	16.216226
2032.000000	16.269622
2031.000000	16.330737
2030.000000	16.391112
2029.000000	16.416277
2028.000000	16.474432
2027.000000	16.524022
2026.000000	16.566739
2025.000000	16.612523
2024.000000	16.648578
2023.000000	16.679136
2022.000000	16.714557
2021.000000	16.731158
2020.000000	16.744586
2019.000000	16.768377
2018.000000	16.793013
2017.000000	16.803164
2016.000000	16.837422
2015.000000	16.843977
2014.000000	16.831395
2013.000000	16.837739
2012.000000	16.858463
2011.000000	16.831289
2010.000000	16.820927
2009.000000	16.815323
2008.000000	16.790052
2007.000000	16.754948
2006.000000	16.745326
2005.000000	16.723650
2004.000000	16.694679
2003.000000	16.650376
2002.000000	16.612628
2001.000000	16.561875
2000.000000	16.510171
1999.000000	16.467242
1998.000000	16.408559
1997.000000	16.343954
1996.000000	16.294999
1995.000000	16.225848
1994.000000	16.171817
1993.000000	16.101397
1992.000000	16.040282
1991.000000	15.961403
1990.000000	15.884217
1989.000000	15.821515
1988.000000	15.749192
1987.000000	15.644409
1986.000000	15.587100
1985.000000	15.491198
1984.000000	15.393181
1983.000000	15.318743
1982.000000	15.244623
1981.000000	15.154325
1980.000000	15.067939
1979.000000	14.988108
1978.000000	14.882796
1977.000000	14.792392
1976.000000	14.707909
1975.000000	14.624590
1974.000000	14.544020
1973.000000	14.465775
1972.000000	14.380975
1971.000000	14.302414
1970.000000	14.217931
1969.000000	14.126893
1968.000000	14.035115
1967.000000	13.972519
1966.000000	13.906963
1965.000000	13.841619
1964.000000	13.757136
1963.000000	13.673605
1962.000000	13.588700
1961.000000	13.524412
1960.000000	13.435700
1959.000000	13.354495
1958.000000	13.281115
1957.000000	13.212070
1956.000000	13.147254
1955.000000	13.073979
1954.000000	12.984316
1953.000000	12.932399
1952.000000	12.855741
1951.000000	12.782678
1950.000000	12.715959
1949.000000	12.656641
1948.000000	12.604620
1947.000000	12.567295
1946.000000	12.507977
1945.000000	12.440095
1944.000000	12.415247
1943.000000	12.396849
1942.000000	12.344405
1941.000000	12.338906
1940.000000	12.308983
1939.000000	12.289422
1938.000000	12.279060
1937.000000	12.280752
1936.000000	12.266372
1935.000000	12.294815
1934.000000	12.291748
1933.000000	12.349268
1932.000000	12.391986
1931.000000	12.410806
1930.000000	12.491483
1929.000000	12.562643
1928.000000	12.608849
1927.000000	12.716911
1926.000000	12.771999
1925.000000	12.848974
1924.000000	12.968350
1923.000000	13.091849
1922.000000	13.209321
1921.000000	13.352592
1920.000000	13.481061
1919.000000	13.609107
1918.000000	13.762423
1917.000000	13.909501
1916.000000	14.100776
1915.000000	14.280315
1914.000000	14.472860
1913.000000	14.677775
1912.000000	14.872751
1911.000000	15.070899
1910.000000	15.261540
1909.000000	15.470579
1908.000000	15.705418
1907.000000	15.926299
1906.000000	16.214428
1905.000000	16.489341
1904.000000	16.748498
1903.000000	17.002052
1902.000000	17.273898
1901.000000	17.534853
1900.000000	17.855549
1899.000000	18.187241
1898.000000	18.481080
1897.000000	18.756732
1896.000000	19.107668
1895.000000	19.396643
1894.000000	19.697038
1893.000000	20.029153
1892.000000	20.365392
1891.000000	20.748365
1890.000000	21.141913
1889.000000	21.479420
1888.000000	21.856050
1887.000000	22.269476
1886.000000	22.648115
1885.000000	23.095693
1884.000000	23.564524
1883.000000	24.048052
1882.000000	24.525554
1881.000000	25.013311
1880.000000	25.490178
1879.000000	25.903604
1878.000000	26.373915
1877.000000	26.783112
1876.000000	27.183955
1875.000000	27.585432
1874.000000	27.949902
1873.000000	28.308980
1872.000000	28.638981
1871.000000	28.950477
1870.000000	29.231099
1869.000000	29.474608
1868.000000	29.712407
1867.000000	29.875874
1866.000000	30.013119
1865.000000	30.126784
1864.000000	30.238124
1863.000000	30.310975
1862.000000	30.402542
1861.000000	30.517371
1860.000000	30.642562
1859.000000	30.724930
1858.000000	30.803914
1857.000000	30.872642
1856.000000	30.898653
1855.000000	30.911447
1854.000000	30.953318
1853.000000	30.968333
1852.000000	30.932700
1851.000000	30.942533
1850.000000	30.955222
1849.000000	30.948666
1848.000000	30.939150
1847.000000	30.944965
1846.000000	30.933969
1845.000000	30.870633
1844.000000	30.830348
1843.000000	30.790380
1842.000000	30.794504
1841.000000	30.819986
1840.000000	30.788900
1839.000000	30.777375
1838.000000	30.762889
1837.000000	30.726304
1836.000000	30.688451
1835.000000	30.661383
1834.000000	30.598470
1833.000000	30.521601
1832.000000	30.462494
1831.000000	30.402860
1830.000000	30.367861
1829.000000	30.333814
1828.000000	30.269210
1827.000000	30.205240
1826.000000	30.139473
1825.000000	30.084913
1824.000000	30.035852
1823.000000	29.997364
1822.000000	29.989222
1821.000000	29.984570
1820.000000	29.960780
1819.000000	29.946505
1818.000000	29.916688
1817.000000	29.867415
1816.000000	29.852084
1815.000000	29.859379
1814.000000	29.842779
1813.000000	29.819306
1812.000000	29.811587
1811.000000	29.801013
1810.000000	29.767072
1809.000000	29.726681
1808.000000	29.697604
1807.000000	29.664720
1806.000000	29.626127
1805.000000	29.578229
1804.000000	29.536569
1803.000000	29.506751
1802.000000	29.475242
1801.000000	29.443839
1800.000000	29.382512
1799.000000	29.324041
1798.000000	29.278363
1797.000000	29.236809
1796.000000	29.202762
1795.000000	29.168398
1794.000000	29.120077
1793.000000	29.070487
1792.000000	29.031471
1791.000000	28.989176
1790.000000	28.934088
1789.000000	28.889468
1788.000000	28.851297
1787.000000	28.802342
1786.000000	28.763008
1785.000000	28.714370
1784.000000	28.650823
1783.000000	28.581989
1782.000000	28.520663
1781.000000	28.459759
1780.000000	28.393886
1779.000000	28.336789
1778.000000	28.273664
1777.000000	28.201764
1776.000000	28.118022
1775.000000	28.034174
1774.000000	27.947259
1773.000000	27.867957
1772.000000	27.763597
1771.000000	27.657544
1770.000000	27.561642
1769.000000	27.461405
1768.000000	27.365503
1767.000000	27.266640
1766.000000	27.178879
1765.000000	27.123263
1764.000000	27.066906
1763.000000	27.026092
1762.000000	27.020699
1761.000000	27.033599
1760.000000	27.063416
1759.000000	27.095348
1758.000000	27.160164
1757.000000	27.220222
1756.000000	27.263785
1755.000000	27.313481
1754.000000	27.363176
1753.000000	27.382103
1752.000000	27.384429
1751.000000	27.382526
1750.000000	27.372270
1749.000000	27.355669
1748.000000	27.316336
1747.000000	27.250039
1746.000000	27.173804
1745.000000	27.093022
1744.000000	26.983586
1743.000000	26.848456
1742.000000	26.721891
1741.000000	26.544361
1740.000000	26.364822
1739.000000	26.169000
1738.000000	25.977830
1737.000000	25.806962
1736.000000	25.639265
1735.000000	25.508999
1734.000000	25.418913
1733.000000	25.382434
1732.000000	25.384337
1731.000000	25.399140
1730.000000	25.437839
1729.000000	25.515555
1728.000000	25.606593
1727.000000	25.699112
1726.000000	25.773338
1725.000000	25.839000
1724.000000	25.909208
1723.000000	25.947061
1722.000000	26.006590
1721.000000	26.049202
1720.000000	26.073944
1719.000000	26.109048
1718.000000	26.141826
1717.000000	26.212774
1716.000000	26.273572
1715.000000	26.333947
1714.000000	26.418959
1713.000000	26.486841
1712.000000	26.538757
1711.000000	26.592470
1710.000000	26.644069
1709.000000	26.669023
1708.000000	26.669763
1707.000000	26.666062
1706.000000	26.646607
1705.000000	26.577773
1704.000000	26.547216
1703.000000	26.504393
1702.000000	26.416209
1701.000000	26.312060
1700.000000	26.201038
1699.000000	26.062630
1698.000000	25.927923
1697.000000	25.813623
1696.000000	25.727026
1695.000000	25.683886
1694.000000	25.660201
1693.000000	25.679868
1692.000000	25.762341
1691.000000	25.876641
1690.000000	26.020865
1689.000000	26.137279
1688.000000	26.231384
1687.000000	26.293768
1686.000000	26.347376
1685.000000	26.382480
1684.000000	26.436088
1683.000000	26.547533
1682.000000	26.740923
1681.000000	27.004522
1680.000000	27.394263
1679.000000	27.789185
1678.000000	28.204091
1677.000000	28.616988
1676.000000	29.039189
1675.000000	29.409792
1674.000000	29.707226
1673.000000	29.980552
1672.000000	30.201751
1671.000000	30.417134
1670.000000	30.623001
1669.000000	30.773885
1668.000000	30.893684
1667.000000	30.992335
1666.000000	31.111499
1665.000000	31.190272
1664.000000	31.251175
1663.000000	31.372771
1662.000000	31.417286
1661.000000	31.469730
1660.000000	31.518897
1659.000000	31.564681
1658.000000	31.600842
1657.000000	31.615011
1656.000000	31.631083
1655.000000	31.651173
1654.000000	31.655719
1653.000000	31.666716
1652.000000	31.640599
1651.000000	31.639753
1650.000000	31.634149
1649.000000	31.613636
1648.000000	31.597459
1647.000000	31.551041
1646.000000	31.514457
1645.000000	31.477343
1644.000000	31.436424
1643.000000	31.401848
1642.000000	31.350567
1641.000000	31.320855
1640.000000	31.268304
1639.000000	31.223155
1638.000000	31.182130
1637.000000	31.123870
1636.000000	31.057256
1635.000000	31.036638
1634.000000	30.954376
1633.000000	30.898125
1632.000000	30.832780
1631.000000	30.784670
1630.000000	30.719220
1629.000000	30.649012
1628.000000	30.581235
1627.000000	30.517265
1626.000000	30.438915
1625.000000	30.376003
1624.000000	30.313936
1623.000000	30.230828
1622.000000	30.169396
1621.000000	30.124141
1620.000000	30.052029
1619.000000	29.984464
1618.000000	29.902202
1617.000000	29.857053
1616.000000	29.808521
1615.000000	29.755759
1614.000000	29.680686
1613.000000	29.616505
1612.000000	29.563954
1611.000000	29.520497
1610.000000	29.442041
1609.000000	29.380926
1608.000000	29.329962
1607.000000	29.266521
1606.000000	29.200013
1605.000000	29.136677
1604.000000	29.095969
1603.000000	29.017936
1602.000000	28.953015
1601.000000	28.893169
1600.000000	28.829304
1599.000000	28.770833
1598.000000	28.714370
1597.000000	28.652303
1596.000000	28.590659
1595.000000	28.557564
1594.000000	28.499833
1593.000000	28.439986
1592.000000	28.395577
1591.000000	28.346728
1590.000000	28.310989
1589.000000	28.263725
1588.000000	28.212761
1587.000000	28.167295
1586.000000	28.137900
1585.000000	28.095077
1584.000000	28.053312
1583.000000	28.014190
1582.000000	27.987227
1581.000000	27.948211
1580.000000	27.925583
1579.000000	27.915856
1578.000000	27.883078
1577.000000	27.851674
1576.000000	27.847973
1575.000000	27.827567
1574.000000	27.812341
1573.000000	27.817627
1572.000000	27.816147
1571.000000	27.800710
1570.000000	27.804622
1569.000000	27.805045
1568.000000	27.804939
1567.000000	27.818579
1566.000000	27.824289
1565.000000	27.825980
1564.000000	27.841206
1563.000000	27.854000
1562.000000	27.862776
1561.000000	27.866054
1560.000000	27.860450
1559.000000	27.860345
1558.000000	27.867217
1557.000000	27.861085
1556.000000	27.849665
1555.000000	27.846282
1554.000000	27.824077
1553.000000	27.804622
1552.000000	27.803565
1551.000000	27.783581
1550.000000	27.768249
1549.000000	27.741604
1548.000000	27.716439
1547.000000	27.696243
1546.000000	27.669492
1545.000000	27.648451
1544.000000	27.628044
1543.000000	27.609434
1542.000000	27.593151
1541.000000	27.589027
1540.000000	27.573061
1539.000000	27.555086
1538.000000	27.541446
1537.000000	27.523048
1536.000000	27.510149
1535.000000	27.493760
1534.000000	27.471449
1533.000000	27.452946
1532.000000	27.423128
1531.000000	27.397223
1530.000000	27.378931
1529.000000	27.345519
1528.000000	27.311472
1527.000000	27.283769
1526.000000	27.241686
1525.000000	27.205313
1524.000000	27.191885
1523.000000	27.165980
1522.000000	27.108142
1521.000000	27.069337
1520.000000	27.027783
1519.000000	26.995746
1518.000000	26.951231
1517.000000	26.902910
1516.000000	26.858501
1515.000000	26.821071
1514.000000	26.786495
1513.000000	26.728552
1512.000000	26.677059
1511.000000	26.627257
1510.000000	26.567940
1509.000000	26.509257
1508.000000	26.465905
1507.000000	26.422342
1506.000000	26.371589
1505.000000	26.314175
1504.000000	26.263527
1503.000000	26.208334
1502.000000	26.153668
1501.000000	26.109788
1500.000000	26.065802
1499.000000	26.023614
1498.000000	25.995911
1497.000000	25.954886
1496.000000	25.900538
1495.000000	25.857398
1494.000000	25.830541
1493.000000	25.814998
1492.000000	25.788881
1491.000000	25.762447
1490.000000	25.731467
1489.000000	25.718778
1488.000000	25.700380
1487.000000	25.670034
1486.000000	25.645081
1485.000000	25.608919
1484.000000	25.587666
1483.000000	25.586398
1482.000000	25.576776
1481.000000	25.551188
1480.000000	25.543046
1479.000000	25.537442
1478.000000	25.538499
1477.000000	25.532684
1476.000000	25.542094
1475.000000	25.540826
1474.000000	25.564087
1473.000000	25.590944
1472.000000	25.605641
1471.000000	25.617378
1470.000000	25.616003
1469.000000	25.633450
1468.000000	25.622348
1467.000000	25.653751
1466.000000	25.681771
1465.000000	25.696574
1464.000000	25.723325
1463.000000	25.763716
1462.000000	25.788775
1461.000000	25.816266
1460.000000	25.871778
1459.000000	25.923694
1458.000000	25.962604
1457.000000	26.034187
1456.000000	26.109365
1455.000000	26.170586
1454.000000	26.224723
1453.000000	26.292922
1452.000000	26.389987
1451.000000	26.481871
1450.000000	26.555357
1449.000000	26.623980
1448.000000	26.692813
1447.000000	26.787870
1446.000000	26.901747
1445.000000	26.998812
1444.000000	27.112478
1443.000000	27.183426
1442.000000	27.282394
1441.000000	27.380411
1440.000000	27.496932
1439.000000	27.593997
1438.000000	27.708403
1437.000000	27.796903
1436.000000	27.904013
1435.000000	28.018419
1434.000000	28.140015
1433.000000	28.263408
1432.000000	28.387859
1431.000000	28.520874
1430.000000	28.640884
1429.000000	28.769352
1428.000000	28.927850
1427.000000	29.071333
1426.000000	29.220208
1425.000000	29.396998
1424.000000	29.601596
1423.000000	29.798793
1422.000000	29.978966
1421.000000	30.145182
1420.000000	30.380338
1419.000000	30.612639
1418.000000	30.831617
1417.000000	31.007878
1416.000000	31.217869
1415.000000	31.451755
1414.000000	31.699705
1413.000000	31.933169
1412.000000	32.161452
1411.000000	32.387937
1410.000000	32.653651
1409.000000	32.980267
1408.000000	33.272626
1407.000000	33.604741
1406.000000	33.878702
1405.000000	34.217161
1404.000000	34.543672
1403.000000	34.861301
1402.000000	35.180940
1401.000000	35.504173
1400.000000	35.868960
1399.000000	36.185004
1398.000000	36.408317
1397.000000	36.597266
1396.000000	36.877783
1395.000000	37.169612
1394.000000	37.407834
1393.000000	37.564746
1392.000000	37.798633
1391.000000	38.025964
1390.000000	38.273385
1389.000000	38.462334
1388.000000	38.782396
1387.000000	39.112502
1386.000000	39.431188
1385.000000	39.768273
1384.000000	40.153044
1383.000000	40.559597
1382.000000	40.963507
1381.000000	41.282828
1380.000000	41.544629
1379.000000	41.733895
1378.000000	41.911108
1377.000000	41.986920
1376.000000	42.124482
1375.000000	42.259189
1374.000000	42.423925
1373.000000	42.624400
1372.000000	42.869494
1371.000000	43.136688
1370.000000	43.408851
1369.000000	43.632799
1368.000000	43.864465
1367.000000	44.093594
1366.000000	44.277468
1365.000000	44.412175
1364.000000	44.594991
1363.000000	44.704216
1362.000000	44.878363
1361.000000	44.980714
1360.000000	45.098610
1359.000000	45.085921
1358.000000	45.170721
1357.000000	45.247379
1356.000000	45.363371
1355.000000	45.566489
1354.000000	45.834528
1353.000000	46.162203
1352.000000	46.417977
1351.000000	46.802431
1350.000000	47.167853
1349.000000	47.472265
1348.000000	47.763143
1347.000000	48.054656
1346.000000	48.319523
1345.000000	48.555102
1344.000000	48.789940
1343.000000	49.052482
1342.000000	49.268076
1341.000000	49.480393
1340.000000	49.705821
1339.000000	49.919407
1338.000000	50.108145
1337.000000	50.321836
1336.000000	50.513852
1335.000000	50.704281
1334.000000	50.897883
1333.000000	51.063465
1332.000000	51.254951
1331.000000	51.418313
1330.000000	51.579771
1329.000000	51.739854
1328.000000	51.889047
1327.000000	52.025657
1326.000000	52.160576
1325.000000	52.294014
1324.000000	52.421848
1323.000000	52.536360
1322.000000	52.656369
1321.000000	52.746985
1320.000000	52.860122
1319.000000	52.967443
1318.000000	53.071170
1317.000000	53.168658
1316.000000	53.237809
1315.000000	53.322820
1314.000000	53.408677
1313.000000	53.481000
1312.000000	53.554698
1311.000000	53.622263
1310.000000	53.685175
1309.000000	53.745339
1308.000000	53.806983
1307.000000	53.861119
1306.000000	53.906480
1305.000000	53.926781
1304.000000	53.975631
1303.000000	54.017819
1302.000000	54.040870
1301.000000	54.057259
1300.000000	54.072062
1299.000000	54.089614
1298.000000	54.116999
1297.000000	54.140790
1296.000000	54.141318
1295.000000	54.140261
1294.000000	54.145442
1293.000000	54.152526
1292.000000	54.154535
1291.000000	54.154852
1290.000000	54.135820
1289.000000	54.124083
1288.000000	54.110866
1287.000000	54.089191
1286.000000	54.057999
1285.000000	54.024058
1284.000000	53.992231
1283.000000	53.956916
1282.000000	53.915362
1281.000000	53.884910
1280.000000	53.854141
1279.000000	53.826227
1278.000000	53.784673
1277.000000	53.743224
1276.000000	53.715522
1275.000000	53.678620
1274.000000	53.640449
1273.000000	53.598049
1272.000000	53.579546
1271.000000	53.564214
1270.000000	53.529533
1269.000000	53.502253
1268.000000	53.477088
1267.000000	53.450337
1266.000000	53.419991
1265.000000	53.387742
1264.000000	53.354435
1263.000000	53.322820
1262.000000	53.295435
1261.000000	53.266146
1260.000000	53.235377
1259.000000	53.204185
1258.000000	53.171936
1257.000000	53.120125
1256.000000	53.087770
1255.000000	53.065354
1254.000000	53.011006
1253.000000	52.956975
1252.000000	52.918805
1251.000000	52.860968
1250.000000	52.810214
1249.000000	52.738209
1248.000000	52.667260
1247.000000	52.615978
1246.000000	52.547673
1245.000000	52.460336
1244.000000	52.367923
1243.000000	52.292322
1242.000000	52.204773
1241.000000	52.105699
1240.000000	52.004827
1239.000000	51.901101
1238.000000	51.791348
1237.000000	51.685506
1236.000000	51.584423
1235.000000	51.474881
1234.000000	51.366397
1233.000000	51.246281
1232.000000	51.116438
1231.000000	50.997063
1230.000000	50.877476
1229.000000	50.743403
1228.000000	50.609648
1227.000000	50.479488
1226.000000	50.346578
1225.000000	50.212188
1224.000000	50.078856
1223.000000	49.952819
1222.000000	49.829109
1221.000000	49.704552
1220.000000	49.569740
1219.000000	49.436407
1218.000000	49.324116
1217.000000	49.210768
1216.000000	49.097102
1215.000000	49.000354
1214.000000	48.900963
1213.000000	48.803475
1212.000000	48.716137
1211.000000	48.628800
1210.000000	48.525390
1209.000000	48.442282
1208.000000	48.362663
1207.000000	48.297319
1206.000000	48.242971
1205.000000	48.182067
1204.000000	48.147809
1203.000000	48.119895
1202.000000	48.098642
1201.000000	48.077283
1200.000000	48.043554
1199.000000	48.002528
1198.000000	47.947229
1197.000000	47.885056
1196.000000	47.789894
1195.000000	47.645988
1194.000000	47.482098
1193.000000	47.272742
1192.000000	47.008615
1191.000000	46.712661
1190.000000	46.408672
1189.000000	46.113987
1188.000000	45.861702
1187.000000	45.682269
1186.000000	45.574842
1185.000000	45.549043
1184.000000	45.602439
1183.000000	45.742116
1182.000000	45.973571
1181.000000	46.276926
1180.000000	46.627544
1179.000000	46.979326
1178.000000	47.314931
1177.000000	47.618920
1176.000000	47.876703
1175.000000	48.115031
1174.000000	48.329145
1173.000000	48.532263
1172.000000	48.747435
1171.000000	48.983119
1170.000000	49.191841
1169.000000	49.435878
1168.000000	49.685626
1167.000000	49.927020
1166.000000	50.172009
1165.000000	50.425985
1164.000000	50.685354
1163.000000	50.939331
1162.000000	51.182100
1161.000000	51.454369
1160.000000	51.700944
1159.000000	51.939271
1158.000000	52.188807
1157.000000	52.423117
1156.000000	52.625706
1155.000000	52.806725
1154.000000	52.964588
1153.000000	53.107543
1152.000000	53.189382
1151.000000	53.237809
1150.000000	53.285284
1149.000000	53.310978
1148.000000	53.358030
1147.000000	53.417030
1146.000000	53.488508
1145.000000	53.586630
1144.000000	53.740687
1143.000000	53.915150
1142.000000	54.130639
1141.000000	54.360508
1140.000000	54.609832
1139.000000	54.838432
1138.000000	55.121592
1137.000000	55.401685
1136.000000	55.661477
1135.000000	55.957325
1134.000000	56.254759
1133.000000	56.547117
1132.000000	56.776563
1131.000000	56.995224
1130.000000	57.210608
1129.000000	57.399134
1128.000000	57.571800
1127.000000	57.702912
1126.000000	57.794690
1125.000000	57.890698
1124.000000	57.956783
1123.000000	58.017792
1122.000000	58.095190
1121.000000	58.121942
1120.000000	58.154191
1119.000000	58.169417
1118.000000	58.207693
1117.000000	58.236347
1116.000000	58.251256
1115.000000	58.241528
1114.000000	58.223871
1113.000000	58.216046
1112.000000	58.215729
1111.000000	58.222179
1110.000000	58.204838
1109.000000	58.209385
1108.000000	58.202935
1107.000000	58.211499
1106.000000	58.176607
1105.000000	58.183480
1104.000000	58.166668
1103.000000	58.177876
1102.000000	58.157574
1101.000000	58.155777
1100.000000	58.144146
1099.000000	58.124162
1098.000000	58.132621
1097.000000	58.116760
1096.000000	58.088529
1095.000000	58.051945
1094.000000	58.060615
1093.000000	58.021070
1092.000000	58.018638
1091.000000	57.976238
1090.000000	57.983428
1089.000000	57.947161
1088.000000	57.913748
1087.000000	57.884142
1086.000000	57.889958
1085.000000	57.826094
1084.000000	57.810656
1083.000000	57.780204
1082.000000	57.747955
1081.000000	57.723425
1080.000000	57.710842
1079.000000	57.675526
1078.000000	57.633232
1077.000000	57.626571
1076.000000	57.607010
1075.000000	57.589352
1074.000000	57.570637
1073.000000	57.541982
1072.000000	57.504023
1071.000000	57.503600
1070.000000	57.473360
1069.000000	57.457183
1068.000000	57.441534
1067.000000	57.397548
1066.000000	57.396596
1065.000000	57.350707
1064.000000	57.325648
1063.000000	57.300377
1062.000000	57.269185
1061.000000	57.257871
1060.000000	57.216317
1059.000000	57.182588
1058.000000	57.148541
1057.000000	57.116397
1056.000000	57.095250
1055.000000	57.059934
1054.000000	57.010239
1053.000000	56.985285
1052.000000	56.944154
1051.000000	56.910636
1050.000000	56.896256
1049.000000	56.875849
1048.000000	56.825942
1047.000000	56.806592
1046.000000	56.780581
1045.000000	56.772863
1044.000000	56.730357
1043.000000	56.713334
1042.000000	56.686371
1041.000000	56.643548
1040.000000	56.644711
1039.000000	56.605378
1038.000000	56.602734
1037.000000	56.579155
1036.000000	56.566467
1035.000000	56.526499
1034.000000	56.502391
1033.000000	56.477861
1032.000000	56.438950
1031.000000	56.417274
1030.000000	56.385554
1029.000000	56.365464
1028.000000	56.357639
1027.000000	56.336281
1026.000000	56.293035
1025.000000	56.265861
1024.000000	56.239639
1023.000000	56.215954
1022.000000	56.176832
1021.000000	56.162980
1020.000000	56.145111
1019.000000	56.143314
1018.000000	56.126925
1017.000000	56.107469
1016.000000	56.098270
1015.000000	56.104086
1014.000000	56.104509
1013.000000	56.114131
1012.000000	56.115188
1011.000000	56.118254
1010.000000	56.153887
1009.000000	56.176197
1008.000000	56.184762
1007.000000	56.202631
1006.000000	56.224941
1005.000000	56.255605
1004.000000	56.291449
1003.000000	56.302128
1002.000000	56.314288
1001.000000	56.351084
1000.000000	56.381959
999.000000	56.405643
998.000000	56.415794
997.000000	56.431443
996.000000	56.472362
995.000000	56.486320
994.000000	56.508841
993.000000	56.545954
992.000000	56.578627
991.000000	56.615528
990.000000	56.632869
989.000000	56.660254
988.000000	56.712911
987.000000	56.752879
986.000000	56.783119
985.000000	56.827422
984.000000	56.858720
983.000000	56.893930
982.000000	56.942462
981.000000	56.979153
980.000000	57.016583
979.000000	57.056022
978.000000	57.098951
977.000000	57.149069
976.000000	57.203206
975.000000	57.243914
974.000000	57.288640
973.000000	57.340768
972.000000	57.394693
971.000000	57.432969
970.000000	57.480127
969.000000	57.516183
968.000000	57.547481
967.000000	57.593158
966.000000	57.633867
965.000000	57.691704
964.000000	57.744783
963.000000	57.810022
962.000000	57.865322
961.000000	57.907404
960.000000	57.967039
959.000000	58.030903
958.000000	58.076475
957.000000	58.109888
956.000000	58.155777
955.000000	58.230003
954.000000	58.276738
953.000000	58.303489
952.000000	58.360058
951.000000	58.411234
950.000000	58.450462
949.000000	58.509568
948.000000	58.561061
947.000000	58.598808
946.000000	58.665739
945.000000	58.725903
944.000000	58.774858
943.000000	58.833330
942.000000	58.901000
941.000000	58.958098
940.000000	59.006524
939.000000	59.065419
938.000000	59.141020
937.000000	59.204567
936.000000	59.270123
935.000000	59.336313
934.000000	59.380828
933.000000	59.426823
932.000000	59.487409
931.000000	59.531078
930.000000	59.566394
929.000000	59.614715
928.000000	59.645801
927.000000	59.684077
926.000000	59.716750
925.000000	59.738637
924.000000	59.787275
923.000000	59.826080
922.000000	59.839191
921.000000	59.862453
920.000000	59.897874
919.000000	59.923674
918.000000	59.945667
917.000000	59.972312
916.000000	59.995257
915.000000	60.007311
914.000000	60.033427
913.000000	60.041252
912.000000	60.046433
911.000000	60.052248
910.000000	60.070646
909.000000	60.090736
908.000000	60.115055
907.000000	60.157561
906.000000	60.194568
905.000000	60.241409
904.000000	60.292373
903.000000	60.358141
902.000000	60.411749
901.000000	60.475190
900.000000	60.550262
899.000000	60.616135
898.000000	60.668157
897.000000	60.740163
896.000000	60.811217
895.000000	60.868209
894.000000	60.921605
893.000000	60.949837
892.000000	61.007251
891.000000	61.049545
890.000000	61.048911
889.000000	61.088879
888.000000	61.118696
887.000000	61.160885
886.000000	61.157924
885.000000	61.164057
884.000000	61.170189
883.000000	61.156867
882.000000	61.154963
881.000000	61.168603
880.000000	61.123349
879.000000	61.120388
878.000000	61.063079
877.000000	60.962948
876.000000	60.860384
875.000000	60.789753
874.000000	60.643521
873.000000	60.443364
872.000000	60.241726
871.000000	60.152803
870.000000	60.221636
869.000000	60.365542
868.000000	60.490416
867.000000	60.604822
866.000000	60.752640
865.000000	60.870535
864.000000	61.016873
863.000000	61.146610
862.000000	61.283009
861.000000	61.435162
860.000000	61.563948
859.000000	61.704365
858.000000	61.855567
857.000000	60.763800
856.000000	62.067700
855.000000	62.735200
854.000000	62.304900
853.000000	62.429300
852.000000	62.357400
851.000000	62.709100
850.000000	62.670100
849.000000	63.089200
848.000000	62.948900
847.000000	62.740200
846.000000	63.136600
845.000000	63.068200
844.000000	63.108800
843.000000	63.075800
842.000000	63.094100
841.000000	63.572800
840.000000	63.665900
839.000000	63.785400
838.000000	63.862700
837.000000	63.996400
836.000000	64.059400
835.000000	64.207500
834.000000	64.296500
833.000000	64.665000
832.000000	64.636600
831.000000	64.670400
830.000000	64.744800
829.000000	65.081100
828.000000	65.133800
827.000000	65.385600
826.000000	65.629500
825.000000	65.435200
824.000000	65.712000
823.000000	65.722300
822.000000	66.074900
821.000000	66.086700
820.000000	66.433000
819.000000	66.532300
818.000000	66.618600
817.000000	66.709600
816.000000	66.964800
815.000000	66.974400
814.000000	67.233300
813.000000	67.366000
812.000000	67.505800
811.000000	67.531800
810.000000	67.763000
809.000000	67.883900
808.000000	68.121100
807.000000	68.129500
806.000000	68.239300
805.000000	68.329400
804.000000	68.485300
803.000000	68.807700
802.000000	68.832400
801.000000	68.928700
800.000000	68.943500
799.000000	69.099800
798.000000	69.267400
797.000000	69.365700
796.000000	69.601400
795.000000	69.580800
794.000000	69.747100
793.000000	69.564900
792.000000	69.724800
791.000000	69.932300
790.000000	69.820000
789.000000	69.988300
788.000000	69.952100
787.000000	70.191500
786.000000	70.049600
785.000000	70.095100
784.000000	70.166200
783.000000	70.078300
782.000000	70.155800
781.000000	70.186500
780.000000	70.035600
779.000000	69.919000
778.000000	69.971400
777.000000	69.889800
776.000000	69.734000
775.000000	69.610500
774.000000	69.602300
773.000000	69.559800
772.000000	69.263200
771.000000	69.237500
770.000000	69.197000
769.000000	69.061100
768.000000	68.942300
767.000000	68.956400
766.000000	68.848900
765.000000	68.534700
764.000000	68.315300
763.000000	68.141500
762.000000	68.096100
761.000000	67.978000
760.000000	67.892200
759.000000	67.736000
758.000000	67.520600
757.000000	67.415000
756.000000	67.115200
755.000000	66.907400
754.000000	66.677400
753.000000	66.488700
752.000000	66.190400
751.000000	66.025200
750.000000	65.888600
749.000000	65.722300
748.000000	65.533700
747.000000	65.337800
746.000000	65.189900
745.000000	65.117400
744.000000	64.889900
743.000000	64.774200
742.000000	64.559400
741.000000	64.574500
740.000000	64.397400
739.000000	64.171300
738.000000	64.101700
737.000000	63.993900
736.000000	63.901000
735.000000	63.739000
734.000000	63.642900
733.000000	63.585900
732.000000	63.431400
731.000000	63.374700
730.000000	63.234000
729.000000	63.150300
728.000000	63.028900
727.000000	63.038400
726.000000	62.962700
725.000000	62.928200
724.000000	62.859700
723.000000	62.698400
722.000000	62.717300
721.000000	62.669600
720.000000	62.579800
719.000000	62.502500
718.000000	62.399600
717.000000	62.393600
716.000000	62.242700
715.000000	62.168700
714.000000	62.039400
713.000000	61.920700
712.000000	61.766100
711.000000	61.637200
710.000000	61.487200
709.000000	61.385800
708.000000	61.220800
707.000000	61.151400
706.000000	60.970400
705.000000	60.820200
704.000000	60.630200
703.000000	60.474900
702.000000	60.315400
701.000000	60.183800
700.000000	59.938000
699.000000	59.674600
698.000000	59.460600
697.000000	59.220500
696.000000	58.976700
695.000000	58.642900
694.000000	58.344100
693.000000	58.003400
692.000000	57.676600
691.000000	57.343600
690.000000	57.018900
689.000000	56.682700
688.000000	56.325200
687.000000	55.987900
686.000000	55.606000
685.000000	55.247200
684.000000	54.884600
683.000000	54.518700
682.000000	54.097200
681.000000	53.715000
680.000000	53.372400
679.000000	52.958900
678.000000	52.511500
677.000000	52.096200
676.000000	51.653300
675.000000	51.193900
674.000000	50.716900
673.000000	50.212300
672.000000	49.763700
671.000000	49.336900
670.000000	48.899900
669.000000	48.433700
668.000000	48.044400
667.000000	47.713900
666.000000	47.342400
665.000000	47.001300
664.000000	46.677600
663.000000	46.421200
662.000000	46.197600
661.000000	45.941000
660.000000	45.735500
659.000000	45.604100
658.000000	45.502400
657.000000	45.360800
656.000000	45.258600
655.000000	45.218400
654.000000	45.174600
653.000000	45.139000
652.000000	45.162600
651.000000	45.218400
650.000000	45.303100
649.000000	45.419600
648.000000	45.556800
647.000000	45.762200
646.000000	45.979100
645.000000	46.221300
644.000000	46.522700
643.000000	46.869200
642.000000	47.225800
641.000000	47.609100
640.000000	48.025100
639.000000	48.458600
638.000000	48.945200
637.000000	49.422900
636.000000	49.877200
635.000000	50.359400
634.000000	50.858900
633.000000	51.377700
632.000000	51.889500
631.000000	52.387800
630.000000	52.904600
629.000000	53.397300
628.000000	53.887300
627.000000	54.377100
626.000000	54.840300
625.000000	55.343400
624.000000	55.844900
623.000000	56.331100
622.000000	56.826800
621.000000	57.334500
620.000000	57.890300
619.000000	58.458500
618.000000	58.998700
617.000000	59.520800
616.000000	60.072300
615.000000	60.647700
614.000000	61.169700
613.000000	61.674800
612.000000	62.174500
611.000000	62.668800
610.000000	63.106000
609.000000	63.558700
608.000000	63.983800
607.000000	64.390100
606.000000	64.758700
605.000000	65.082400
604.000000	65.434500
603.000000	65.744000
602.000000	66.037600
601.000000	66.347400
600.000000	66.660500
599.000000	66.956700
598.000000	67.251800
597.000000	67.530900
596.000000	67.837000
595.000000	68.104500
594.000000	68.400600
593.000000	68.665700
592.000000	68.933100
591.000000	69.180100
590.000000	69.408000
589.000000	69.577400
588.000000	69.762700
587.000000	69.977000
586.000000	70.103900
585.000000	70.196900
584.000000	70.311000
583.000000	70.402100
582.000000	70.431300
581.000000	70.453000
580.000000	70.474300
579.000000	70.476400
578.000000	70.456200
577.000000	70.416800
576.000000	70.393000
575.000000	70.299300
574.000000	70.201200
573.000000	70.111200
572.000000	69.983200
571.000000	69.830900
570.000000	69.648400
569.000000	69.435200
568.000000	69.231000
567.000000	69.035000
566.000000	68.789900
565.000000	68.529600
564.000000	68.203100
563.000000	67.857900
562.000000	67.544800
561.000000	67.171500
560.000000	66.761300
559.000000	66.274900
558.000000	65.807300
557.000000	65.304000
556.000000	64.818100
555.000000	64.268000
554.000000	63.738500
553.000000	63.135900
552.000000	62.533700
551.000000	61.899800
550.000000	61.213500
549.000000	60.537800
548.000000	59.829000
547.000000	59.091900
546.000000	58.289700
545.000000	57.461100
544.000000	56.575300
543.000000	55.666800
542.000000	54.709500
541.000000	53.727500
540.000000	52.726800
539.000000	51.697000
538.000000	50.651800
537.000000	49.583800
536.000000	48.529000
535.000000	47.458600
534.000000	46.334700
533.000000	45.284100
532.000000	44.166800
531.000000	43.129900
530.000000	42.069700
529.000000	41.033500
528.000000	40.061000
527.000000	39.081600
526.000000	38.132500
525.000000	37.223700
524.000000	36.320100
523.000000	35.439000
522.000000	34.586500
521.000000	33.793500
520.000000	32.981100
519.000000	32.211500
518.000000	31.496300
517.000000	30.783900
516.000000	30.122900
515.000000	29.498300
514.000000	28.855000
513.000000	28.245200
512.000000	27.681700
511.000000	27.118900
510.000000	26.586700
509.000000	26.099500
508.000000	25.627900
507.000000	25.166600
506.000000	24.746600
505.000000	24.309700
504.000000	23.870900
503.000000	23.472900
502.000000	23.102500
501.000000	22.725900
500.000000	22.353900
499.000000	22.004300
498.000000	21.669200
497.000000	21.347300
496.000000	20.990800
495.000000	20.683600
494.000000	20.381100
493.000000	20.064600
492.000000	19.779100
491.000000	19.492800
490.000000	19.203200
489.000000	18.961600
488.000000	18.665100
487.000000	18.436000
486.000000	18.219500
485.000000	18.004100
484.000000	17.793600
483.000000	17.593900
482.000000	17.397900
481.000000	17.243200
480.000000	17.098800
479.000000	16.960100
478.000000	16.812400
477.000000	16.670000
476.000000	16.535300
475.000000	16.406300
474.000000	16.269500
473.000000	16.180200
472.000000	16.056000
471.000000	15.953000
470.000000	15.867200
469.000000	15.754700
468.000000	15.668500
467.000000	15.575400
466.000000	15.501300
465.000000	15.413600
464.000000	15.339800
463.000000	15.257200
462.000000	15.167400
461.000000	15.105000
460.000000	15.052600
459.000000	14.983900
458.000000	14.917300
457.000000	14.868900
456.000000	14.835500
455.000000	14.766500
454.000000	14.680000
453.000000	14.646400
452.000000	14.628100
451.000000	14.593600
450.000000	14.551500
449.000000	14.524800
448.000000	14.483700
447.000000	14.470500
446.000000	14.437000
445.000000	14.418600
444.000000	14.401800
443.000000	14.383700
442.000000	14.326600
441.000000	14.292000
440.000000	14.265700
439.000000	14.221300
438.000000	14.187800
437.000000	14.116500
436.000000	14.029000
435.000000	13.961600
434.000000	13.896300
433.000000	13.799900
432.000000	13.686100
431.000000	13.587400
430.000000	13.469700
429.000000	13.346400
428.000000	13.239000
427.000000	13.103800
426.000000	12.920800
425.000000	12.773500
424.000000	12.610100
423.000000	12.430500
422.000000	12.234000
421.000000	12.060200
420.000000	11.871200
419.000000	11.668100
418.000000	11.465400
417.000000	11.256100
416.000000	11.050600
415.000000	10.830700
414.000000	10.618600
413.000000	10.413500
412.000000	10.205600
411.000000	9.997500
410.000000	9.775200
409.000000	9.572300
408.000000	9.351300
407.000000	9.167900
406.000000	8.969700
405.000000	8.781200
404.000000	8.583600
403.000000	8.395100
402.000000	8.228900
401.000000	8.061800
400.000000	7.892800
399.000000	7.713700
398.000000	7.550300
397.000000	7.430900
396.000000	7.294800
395.000000	7.131300
394.000000	7.006600
393.000000	6.894800
392.000000	6.773800
391.000000	6.684600
390.000000	6.570800
389.000000	6.479100
388.000000	6.405500
387.000000	6.323700
386.000000	6.232900
385.000000	6.163500
384.000000	6.109600
383.000000	6.037000
382.000000	5.991900
381.000000	5.959700
380.000000	5.919100
379.000000	5.891700
378.000000	5.858400
377.000000	5.827100
376.000000	5.759400
375.000000	5.639300
374.000000	5.611900
373.000000	5.670500
372.000000	5.625700
371.000000	5.662100
370.000000	5.700800
369.000000	5.687000
368.000000	5.636700
367.000000	5.610900
366.000000	5.703500
365.000000	5.683200
364.000000	5.649700
363.000000	5.612900
362.000000	5.594300
361.000000	5.610300
360.000000	5.564300
359.000000	5.547900
358.000000	5.568300
357.000000	5.499300
356.000000	5.501400
355.000000	5.561600
354.000000	5.606900
353.000000	5.542000
352.000000	5.457100
351.000000	5.536600
350.000000	5.597000
349.000000	5.601900
348.000000	5.599900
347.000000	5.553600
346.000000	5.488000
345.000000	5.526400
344.000000	5.524900
343.000000	5.546000
342.000000	5.605800
341.000000	5.580900
340.000000	5.556100
339.000000	5.553900
338.000000	5.548400
337.000000	5.580500
336.000000	5.694900
335.000000	5.679700
334.000000	5.561400
333.000000	5.540200
332.000000	5.571800
331.000000	5.569800
330.000000	5.604100
329.000000	5.639900
328.000000	5.615500
327.000000	5.713600
326.000000	5.744000
325.000000	5.608400
324.000000	5.579700
323.000000	5.598500
322.000000	5.649800
321.000000	5.846200
320.000000	5.916800
319.000000	5.773100
318.000000	5.777100
317.000000	5.879100
316.000000	5.822900
315.000000	5.669300
314.000000	5.655800
313.000000	5.720600
312.000000	5.727400
311.000000	5.715000
310.000000	5.718600
309.000000	5.722100
308.000000	5.752500
307.000000	5.747500
306.000000	5.734600
305.000000	5.742700
304.000000	5.745300
303.000000	5.739500
302.000000	5.750900
301.000000	5.776000
300.000000	5.795700
299.000000	5.806800
298.000000	5.814300
297.000000	5.811600
296.000000	5.795300
295.000000	5.802400
294.000000	5.823300
293.000000	5.827400
292.000000	5.840700
291.000000	5.872800
290.000000	5.862000
289.000000	5.845100
288.000000	5.850500
287.000000	5.843500
286.000000	5.892400
285.000000	5.887200
284.000000	5.857000
283.000000	5.864500
282.000000	5.869200
281.000000	5.920200
280.000000	5.916000
279.000000	5.930600
278.000000	5.972800
277.000000	5.979700
276.000000	5.970900
275.000000	5.987300
274.000000	6.014700
273.000000	6.042800
272.000000	6.032000
271.000000	6.062700
270.000000	6.059300
269.000000	6.066000
268.000000	6.099900
267.000000	6.087800
266.000000	6.080200
265.000000	6.113400
264.000000	6.157600
263.000000	6.183900
262.000000	6.221400
261.000000	6.267800
260.000000	6.263700
259.000000	6.316200
258.000000	6.347600
257.000000	6.347400
256.000000	6.337400
255.000000	6.365600
254.000000	6.362000
253.000000	6.393000
252.000000	6.395500
251.000000	6.411000
250.000000	6.450500
