PE UV       SUBTECH     SPECTRUM    ASCII       PEDS        4.00        
   -1
CICIMAUCR0225-3.Sample.ASC
24/05/27
16:32:59.00
24/05/27
16:32:59.00
Vinicio Soto Monge
C. resplendens, F
250,000000
1
Lambda 1050
1050L1511233
PerkinElmer UV WinLab 6.3.2.0749 / 2.02.05 Lambda 900 UV/VIS/NIR, Aug  7 2015 09:38:08

0
0
3350/servo 860,8/2
0
0
UV/VIS
1
1
1
DoubleDePol,CommonBeamDepol,RBeamAtt,SBeamAtt,60mm sphere, WB InGaAs Detector
0
0
0
0
Program
Program
3350/servo 860,8/2
3350/0,2 860,8/0,2
3350/0,2 860,8/0,2
0
15.00
 
 
 
0
 
860,8
319,2
860,8
Front
100
on
S:100 R:100
0
0
0
0
 
0
 
 
 
0
 
 
0
0
0
0
0
 
 
 
 
0
0


0
0
#HDR
-1
-1
#GR
nm
%R
1.0
0.0
2500,000000
-1,000000
2251
8
72,869500
5,660100
#DATA
2500.000000	10.146910
2499.000000	10.034610
2498.000000	10.002421
2497.000000	10.061759
2496.000000	9.916756
2495.000000	10.057440
2494.000000	9.976403
2493.000000	9.884876
2492.000000	9.815768
2491.000000	9.842918
2490.000000	9.824098
2489.000000	9.746146
2488.000000	9.749951
2487.000000	9.782243
2486.000000	9.782449
2485.000000	9.812272
2484.000000	9.793864
2483.000000	9.770314
2482.000000	9.749129
2481.000000	9.727533
2480.000000	9.661099
2479.000000	9.735348
2478.000000	9.707068
2477.000000	9.671691
2476.000000	9.718174
2475.000000	9.727121
2474.000000	9.711181
2473.000000	9.777924
2472.000000	9.775456
2471.000000	9.782243
2470.000000	9.739256
2469.000000	9.753345
2468.000000	9.735143
2467.000000	9.764760
2466.000000	9.758796
2465.000000	9.833251
2464.000000	9.816900
2463.000000	9.869759
2462.000000	9.899685
2461.000000	9.895469
2460.000000	9.963034
2459.000000	10.002832
2458.000000	10.060628
2457.000000	10.135906
2456.000000	10.172311
2455.000000	10.187428
2454.000000	10.296335
2453.000000	10.368733
2452.000000	10.428380
2451.000000	10.520112
2450.000000	10.581507
2449.000000	10.654317
2448.000000	10.755099
2447.000000	10.834593
2446.000000	10.901439
2445.000000	10.976614
2444.000000	11.072871
2443.000000	11.156376
2442.000000	11.248417
2441.000000	11.330174
2440.000000	11.418821
2439.000000	11.456975
2438.000000	11.535955
2437.000000	11.620077
2436.000000	11.689082
2435.000000	11.772793
2434.000000	11.823698
2433.000000	11.906175
2432.000000	11.977134
2431.000000	12.034518
2430.000000	12.083572
2429.000000	12.129541
2428.000000	12.179418
2427.000000	12.223124
2426.000000	12.281434
2425.000000	12.339435
2424.000000	12.383656
2423.000000	12.415639
2422.000000	12.465310
2421.000000	12.513644
2420.000000	12.546039
2419.000000	12.578741
2418.000000	12.620186
2417.000000	12.656076
2416.000000	12.688471
2415.000000	12.716340
2414.000000	12.752025
2413.000000	12.785036
2412.000000	12.807352
2411.000000	12.830697
2410.000000	12.864222
2409.000000	12.903610
2408.000000	12.937341
2407.000000	12.959862
2406.000000	12.984338
2405.000000	13.016527
2404.000000	13.035346
2403.000000	13.078436
2402.000000	13.126256
2401.000000	13.165952
2400.000000	13.198552
2399.000000	13.238453
2398.000000	13.271567
2397.000000	13.298614
2396.000000	13.317845
2395.000000	13.353941
2394.000000	13.389215
2393.000000	13.425209
2392.000000	13.456677
2391.000000	13.473748
2390.000000	13.499047
2389.000000	13.518998
2388.000000	13.517866
2387.000000	13.536892
2386.000000	13.571548
2385.000000	13.570726
2384.000000	13.561573
2383.000000	13.563013
2382.000000	13.568463
2381.000000	13.568463
2380.000000	13.568874
2379.000000	13.567846
2378.000000	13.549232
2377.000000	13.544090
2376.000000	13.545016
2375.000000	13.513444
2374.000000	13.483827
2373.000000	13.474263
2372.000000	13.460791
2371.000000	13.434053
2370.000000	13.399499
2369.000000	13.365048
2368.000000	13.330597
2367.000000	13.283188
2366.000000	13.244521
2365.000000	13.199786
2364.000000	13.137054
2363.000000	13.081624
2362.000000	13.014778
2361.000000	12.945979
2360.000000	12.892194
2359.000000	12.845197
2358.000000	12.784111
2357.000000	12.715929
2356.000000	12.667080
2355.000000	12.632938
2354.000000	12.600029
2353.000000	12.560025
2352.000000	12.530510
2351.000000	12.530818
2350.000000	12.528042
2349.000000	12.538737
2348.000000	12.568560
2347.000000	12.590362
2346.000000	12.622139
2345.000000	12.667183
2344.000000	12.699371
2343.000000	12.741433
2342.000000	12.797480
2341.000000	12.838513
2340.000000	12.860006
2339.000000	12.893017
2338.000000	12.926954
2337.000000	12.949887
2336.000000	12.964490
2335.000000	12.972512
2334.000000	12.961816
2333.000000	12.939706
2332.000000	12.918418
2331.000000	12.888492
2330.000000	12.847974
2329.000000	12.812391
2328.000000	12.756653
2327.000000	12.698857
2326.000000	12.636228
2325.000000	12.566606
2324.000000	12.480942
2323.000000	12.401961
2322.000000	12.300048
2321.000000	12.191244
2320.000000	12.078019
2319.000000	11.953995
2318.000000	11.832645
2317.000000	11.713661
2316.000000	11.570200
2315.000000	11.426431
2314.000000	11.281120
2313.000000	11.167277
2312.000000	11.054463
2311.000000	10.954504
2310.000000	10.844877
2309.000000	10.757156
2308.000000	10.692367
2307.000000	10.636423
2306.000000	10.617809
2305.000000	10.591791
2304.000000	10.589014
2303.000000	10.640331
2302.000000	10.680335
2301.000000	10.737102
2300.000000	10.811969
2299.000000	10.892389
2298.000000	10.992863
2297.000000	11.096730
2296.000000	11.193501
2295.000000	11.291610
2294.000000	11.383753
2293.000000	11.475691
2292.000000	11.542845
2291.000000	11.590048
2290.000000	11.659773
2289.000000	11.689596
2288.000000	11.700086
2287.000000	11.736491
2286.000000	11.728572
2285.000000	11.707799
2284.000000	11.696898
2283.000000	11.673142
2282.000000	11.629641
2281.000000	11.570200
2280.000000	11.528448
2279.000000	11.463762
2278.000000	11.422318
2277.000000	11.408537
2276.000000	11.357427
2275.000000	11.302819
2274.000000	11.291918
2273.000000	11.259524
2272.000000	11.250783
2271.000000	11.231140
2270.000000	11.266620
2269.000000	11.307344
2268.000000	11.359278
2267.000000	11.430751
2266.000000	11.544799
2265.000000	11.672833
2264.000000	11.786162
2263.000000	11.934970
2262.000000	12.127690
2261.000000	12.346428
2260.000000	12.554163
2259.000000	12.768479
2258.000000	13.002849
2257.000000	13.261386
2256.000000	13.528150
2255.000000	13.775786
2254.000000	14.028976
2253.000000	14.289158
2252.000000	14.533195
2251.000000	14.750699
2250.000000	14.992576
2249.000000	15.197020
2248.000000	15.412365
2247.000000	15.595727
2246.000000	15.770553
2245.000000	15.932215
2244.000000	16.077116
2243.000000	16.221296
2242.000000	16.352004
2241.000000	16.458237
2240.000000	16.597686
2239.000000	16.690755
2238.000000	16.794211
2237.000000	16.859720
2236.000000	16.918543
2235.000000	17.022411
2234.000000	17.079075
2233.000000	17.128335
2232.000000	17.174407
2231.000000	17.218833
2230.000000	17.239195
2229.000000	17.256472
2228.000000	17.299973
2227.000000	17.298122
2226.000000	17.308714
2225.000000	17.308406
2224.000000	17.297505
2223.000000	17.296785
2222.000000	17.274160
2221.000000	17.257398
2220.000000	17.237755
2219.000000	17.188804
2218.000000	17.149417
2217.000000	17.154045
2216.000000	17.099334
2215.000000	17.082263
2214.000000	17.022205
2213.000000	16.990017
2212.000000	16.965747
2211.000000	16.935820
2210.000000	16.898798
2209.000000	16.888309
2208.000000	16.856326
2207.000000	16.824652
2206.000000	16.810974
2205.000000	16.792463
2204.000000	16.777757
2203.000000	16.733948
2202.000000	16.741969
2201.000000	16.730862
2200.000000	16.722944
2199.000000	16.701039
2198.000000	16.673684
2197.000000	16.655276
2196.000000	16.651368
2195.000000	16.648180
2194.000000	16.641084
2193.000000	16.639953
2192.000000	16.604268
2191.000000	16.595732
2190.000000	16.574444
2189.000000	16.569508
2188.000000	16.565189
2187.000000	16.535366
2186.000000	16.528681
2185.000000	16.509039
2184.000000	16.511507
2183.000000	16.482301
2182.000000	16.465127
2181.000000	16.456283
2180.000000	16.437155
2179.000000	16.424711
2178.000000	16.406714
2177.000000	16.396739
2176.000000	16.393859
2175.000000	16.388100
2174.000000	16.380285
2173.000000	16.390466
2172.000000	16.401675
2171.000000	16.413913
2170.000000	16.416587
2169.000000	16.436640
2168.000000	16.442708
2167.000000	16.446513
2166.000000	16.469343
2165.000000	16.511096
2164.000000	16.538657
2163.000000	16.552951
2162.000000	16.574547
2161.000000	16.619488
2160.000000	16.659081
2159.000000	16.690344
2158.000000	16.740529
2157.000000	16.762948
2156.000000	16.821258
2155.000000	16.867741
2154.000000	16.917001
2153.000000	16.960090
2152.000000	17.012333
2151.000000	17.077944
2150.000000	17.125661
2149.000000	17.172864
2148.000000	17.224592
2147.000000	17.274777
2146.000000	17.333704
2145.000000	17.361779
2144.000000	17.412376
2143.000000	17.472125
2142.000000	17.509559
2141.000000	17.553985
2140.000000	17.594812
2139.000000	17.636565
2138.000000	17.686442
2137.000000	17.727886
2136.000000	17.771798
2135.000000	17.795759
2134.000000	17.832062
2133.000000	17.870832
2132.000000	17.901169
2131.000000	17.921737
2130.000000	17.935517
2129.000000	17.956599
2128.000000	17.980150
2127.000000	17.990331
2126.000000	17.987040
2125.000000	18.008739
2124.000000	18.024679
2123.000000	18.030952
2122.000000	18.018611
2121.000000	18.009253
2120.000000	18.017172
2119.000000	18.007505
2118.000000	17.997632
2117.000000	17.991668
2116.000000	17.964415
2115.000000	17.943230
2114.000000	17.947035
2113.000000	17.949401
2112.000000	17.926056
2111.000000	17.893868
2110.000000	17.877208
2109.000000	17.863016
2108.000000	17.839363
2107.000000	17.808306
2106.000000	17.794011
2105.000000	17.789692
2104.000000	17.772106
2103.000000	17.746911
2102.000000	17.712768
2101.000000	17.680271
2100.000000	17.674204
2099.000000	17.651374
2098.000000	17.627515
2097.000000	17.616923
2096.000000	17.603245
2095.000000	17.586585
2094.000000	17.564166
2093.000000	17.536400
2092.000000	17.527144
2091.000000	17.523956
2090.000000	17.505651
2089.000000	17.489402
2088.000000	17.483438
2087.000000	17.464001
2086.000000	17.442919
2085.000000	17.431298
2084.000000	17.404560
2083.000000	17.389854
2082.000000	17.369698
2081.000000	17.334218
2080.000000	17.313959
2079.000000	17.277760
2078.000000	17.237550
2077.000000	17.201762
2076.000000	17.171013
2075.000000	17.135945
2074.000000	17.082469
2073.000000	17.038454
2072.000000	16.995878
2071.000000	16.954948
2070.000000	16.908465
2069.000000	16.852110
2068.000000	16.794417
2067.000000	16.748962
2066.000000	16.697028
2065.000000	16.646740
2064.000000	16.588842
2063.000000	16.545033
2062.000000	16.507805
2061.000000	16.452478
2060.000000	16.412782
2059.000000	16.363111
2058.000000	16.329174
2057.000000	16.307783
2056.000000	16.294106
2055.000000	16.281456
2054.000000	16.288655
2053.000000	16.306652
2052.000000	16.319713
2051.000000	16.355500
2050.000000	16.399413
2049.000000	16.441988
2048.000000	16.496595
2047.000000	16.569303
2046.000000	16.663092
2045.000000	16.762228
2044.000000	16.860234
2043.000000	16.955977
2042.000000	17.076298
2041.000000	17.193021
2040.000000	17.285678
2039.000000	17.386461
2038.000000	17.483540
2037.000000	17.579489
2036.000000	17.684899
2035.000000	17.791543
2034.000000	17.860548
2033.000000	17.948167
2032.000000	18.018817
2031.000000	18.086691
2030.000000	18.165671
2029.000000	18.236218
2028.000000	18.296585
2027.000000	18.345639
2026.000000	18.398190
2025.000000	18.437166
2024.000000	18.482209
2023.000000	18.524990
2022.000000	18.564994
2021.000000	18.600885
2020.000000	18.629783
2019.000000	18.664440
2018.000000	18.677500
2017.000000	18.694571
2016.000000	18.709072
2015.000000	18.726040
2014.000000	18.763576
2013.000000	18.764193
2012.000000	18.762548
2011.000000	18.762034
2010.000000	18.769438
2009.000000	18.777048
2008.000000	18.742494
2007.000000	18.745580
2006.000000	18.746505
2005.000000	18.716990
2004.000000	18.687270
2003.000000	18.655493
2002.000000	18.627418
2001.000000	18.616620
2000.000000	18.592761
1999.000000	18.538668
1998.000000	18.487557
1997.000000	18.455985
1996.000000	18.409399
1995.000000	18.355923
1994.000000	18.306663
1993.000000	18.231899
1992.000000	18.158884
1991.000000	18.095432
1990.000000	18.034449
1989.000000	17.961947
1988.000000	17.897981
1987.000000	17.844197
1986.000000	17.739095
1985.000000	17.666902
1984.000000	17.585145
1983.000000	17.511513
1982.000000	17.442199
1981.000000	17.363733
1980.000000	17.261100
1979.000000	17.190861
1978.000000	17.133168
1977.000000	17.019120
1976.000000	16.954023
1975.000000	16.866096
1974.000000	16.776009
1973.000000	16.705667
1972.000000	16.624013
1971.000000	16.548221
1970.000000	16.461322
1969.000000	16.395710
1968.000000	16.314673
1967.000000	16.240115
1966.000000	16.170802
1965.000000	16.075984
1964.000000	16.006054
1963.000000	15.950932
1962.000000	15.877094
1961.000000	15.775592
1960.000000	15.698565
1959.000000	15.626270
1958.000000	15.557573
1957.000000	15.497927
1956.000000	15.436635
1955.000000	15.368967
1954.000000	15.300579
1953.000000	15.237950
1952.000000	15.157016
1951.000000	15.093564
1950.000000	15.026513
1949.000000	14.984761
1948.000000	14.928096
1947.000000	14.871432
1946.000000	14.812403
1945.000000	14.750802
1944.000000	14.705553
1943.000000	14.676038
1942.000000	14.653414
1941.000000	14.627190
1940.000000	14.622253
1939.000000	14.589859
1938.000000	14.564458
1937.000000	14.591093
1936.000000	14.573919
1935.000000	14.595310
1934.000000	14.607239
1933.000000	14.642924
1932.000000	14.692287
1931.000000	14.700411
1930.000000	14.758824
1929.000000	14.827520
1928.000000	14.914419
1927.000000	14.972523
1926.000000	15.095929
1925.000000	15.178098
1924.000000	15.309012
1923.000000	15.396219
1922.000000	15.484558
1921.000000	15.626887
1920.000000	15.790606
1919.000000	15.984458
1918.000000	16.098609
1917.000000	16.276520
1916.000000	16.450935
1915.000000	16.593984
1914.000000	16.761508
1913.000000	16.986109
1912.000000	17.210400
1911.000000	17.433047
1910.000000	17.646129
1909.000000	17.847590
1908.000000	18.041750
1907.000000	18.262031
1906.000000	18.516763
1905.000000	18.785070
1904.000000	19.095232
1903.000000	19.332481
1902.000000	19.620636
1901.000000	19.891308
1900.000000	20.179977
1899.000000	20.475536
1898.000000	20.819018
1897.000000	21.127740
1896.000000	21.425047
1895.000000	21.706620
1894.000000	21.966597
1893.000000	22.298972
1892.000000	22.605638
1891.000000	22.984497
1890.000000	23.346901
1889.000000	23.683081
1888.000000	24.009903
1887.000000	24.400588
1886.000000	24.757954
1885.000000	25.165813
1884.000000	25.562668
1883.000000	26.004670
1882.000000	26.437416
1881.000000	26.862141
1880.000000	27.289951
1879.000000	27.709533
1878.000000	28.093534
1877.000000	28.497691
1876.000000	28.858038
1875.000000	29.206456
1874.000000	29.532970
1873.000000	29.847554
1872.000000	30.150106
1871.000000	30.410392
1870.000000	30.659262
1869.000000	30.849411
1868.000000	31.068869
1867.000000	31.220557
1866.000000	31.348900
1865.000000	31.451533
1864.000000	31.566198
1863.000000	31.654331
1862.000000	31.768894
1861.000000	31.873275
1860.000000	31.960894
1859.000000	32.045016
1858.000000	32.084198
1857.000000	32.129755
1856.000000	32.180558
1855.000000	32.203491
1854.000000	32.222722
1853.000000	32.234445
1852.000000	32.204828
1851.000000	32.197938
1850.000000	32.206679
1849.000000	32.214700
1848.000000	32.225498
1847.000000	32.195675
1846.000000	32.122762
1845.000000	32.055300
1844.000000	32.052215
1843.000000	32.038229
1842.000000	32.056534
1841.000000	32.061676
1840.000000	32.027636
1839.000000	32.003572
1838.000000	31.975497
1837.000000	31.942589
1836.000000	31.885307
1835.000000	31.849416
1834.000000	31.786582
1833.000000	31.724981
1832.000000	31.676853
1831.000000	31.653714
1830.000000	31.612270
1829.000000	31.556120
1828.000000	31.504392
1827.000000	31.433022
1826.000000	31.381808
1825.000000	31.338616
1824.000000	31.265600
1823.000000	31.246472
1822.000000	31.262103
1821.000000	31.255625
1820.000000	31.221688
1819.000000	31.190733
1818.000000	31.143119
1817.000000	31.121523
1816.000000	31.125328
1815.000000	31.133143
1814.000000	31.114632
1813.000000	31.085735
1812.000000	31.072057
1811.000000	31.057454
1810.000000	31.041823
1809.000000	31.005212
1808.000000	30.982382
1807.000000	30.956672
1806.000000	30.919136
1805.000000	30.887770
1804.000000	30.843652
1803.000000	30.805190
1802.000000	30.782051
1801.000000	30.756753
1800.000000	30.706671
1799.000000	30.651137
1798.000000	30.607945
1797.000000	30.577711
1796.000000	30.550561
1795.000000	30.514465
1794.000000	30.476826
1793.000000	30.445563
1792.000000	30.406278
1791.000000	30.361543
1790.000000	30.332748
1789.000000	30.300045
1788.000000	30.247392
1787.000000	30.204611
1786.000000	30.175302
1785.000000	30.132521
1784.000000	30.073594
1783.000000	30.011479
1782.000000	29.948439
1781.000000	29.902059
1780.000000	29.843338
1779.000000	29.766106
1778.000000	29.707796
1777.000000	29.628713
1776.000000	29.563925
1775.000000	29.496976
1774.000000	29.415631
1773.000000	29.329040
1772.000000	29.229801
1771.000000	29.129019
1770.000000	29.025563
1769.000000	28.924472
1768.000000	28.818240
1767.000000	28.715298
1766.000000	28.622743
1765.000000	28.528954
1764.000000	28.468587
1763.000000	28.430948
1762.000000	28.415728
1761.000000	28.426115
1760.000000	28.445037
1759.000000	28.482265
1758.000000	28.537181
1757.000000	28.583047
1756.000000	28.642179
1755.000000	28.690514
1754.000000	28.710670
1753.000000	28.728975
1752.000000	28.755714
1751.000000	28.745532
1750.000000	28.749029
1749.000000	28.738334
1748.000000	28.703677
1747.000000	28.654314
1746.000000	28.597342
1745.000000	28.516922
1744.000000	28.420356
1743.000000	28.294687
1742.000000	28.182489
1741.000000	28.035327
1740.000000	27.842915
1739.000000	27.667986
1738.000000	27.488018
1737.000000	27.292316
1736.000000	27.132710
1735.000000	26.989558
1734.000000	26.878801
1733.000000	26.787994
1732.000000	26.741202
1731.000000	26.743156
1730.000000	26.781309
1729.000000	26.825633
1728.000000	26.879520
1727.000000	26.958809
1726.000000	27.045502
1725.000000	27.113582
1724.000000	27.177959
1723.000000	27.221048
1722.000000	27.285220
1721.000000	27.314118
1720.000000	27.353916
1719.000000	27.399063
1718.000000	27.445340
1717.000000	27.513214
1716.000000	27.585510
1715.000000	27.659451
1714.000000	27.737403
1713.000000	27.815149
1712.000000	27.892689
1711.000000	27.935882
1710.000000	27.991929
1709.000000	28.021135
1708.000000	28.024837
1707.000000	28.065870
1706.000000	28.064122
1705.000000	28.055586
1704.000000	28.021032
1703.000000	27.979691
1702.000000	27.944006
1701.000000	27.879937
1700.000000	27.794375
1699.000000	27.688348
1698.000000	27.595691
1697.000000	27.497582
1696.000000	27.408215
1695.000000	27.350625
1694.000000	27.360498
1693.000000	27.385899
1692.000000	27.459223
1691.000000	27.559697
1690.000000	27.661919
1689.000000	27.800854
1688.000000	27.901431
1687.000000	27.966836
1686.000000	27.995014
1685.000000	28.054146
1684.000000	28.107520
1683.000000	28.206348
1682.000000	28.375107
1681.000000	28.605260
1680.000000	28.900099
1679.000000	29.273816
1678.000000	29.650001
1677.000000	30.039657
1676.000000	30.418310
1675.000000	30.752537
1674.000000	31.037709
1673.000000	31.304165
1672.000000	31.524240
1671.000000	31.718297
1670.000000	31.879240
1669.000000	32.025271
1668.000000	32.173462
1667.000000	32.247917
1666.000000	32.363405
1665.000000	32.442797
1664.000000	32.515401
1663.000000	32.599524
1662.000000	32.667603
1661.000000	32.719742
1660.000000	32.762318
1659.000000	32.819907
1658.000000	32.851685
1657.000000	32.877291
1656.000000	32.899710
1655.000000	32.924494
1654.000000	32.941669
1653.000000	32.943005
1652.000000	32.939817
1651.000000	32.932413
1650.000000	32.922849
1649.000000	32.904030
1648.000000	32.866390
1647.000000	32.862894
1646.000000	32.833996
1645.000000	32.804687
1644.000000	32.757690
1643.000000	32.723547
1642.000000	32.682412
1641.000000	32.660816
1640.000000	32.630272
1639.000000	32.577825
1638.000000	32.522086
1637.000000	32.482287
1636.000000	32.451333
1635.000000	32.397959
1634.000000	32.331525
1633.000000	32.296046
1632.000000	32.258921
1631.000000	32.185597
1630.000000	32.111656
1629.000000	32.072988
1628.000000	32.005629
1627.000000	31.942794
1626.000000	31.878828
1625.000000	31.816611
1624.000000	31.757376
1623.000000	31.684977
1622.000000	31.628621
1621.000000	31.572368
1620.000000	31.514984
1619.000000	31.458629
1618.000000	31.394766
1617.000000	31.334194
1616.000000	31.303445
1615.000000	31.231457
1614.000000	31.163172
1613.000000	31.115764
1612.000000	31.056734
1611.000000	30.990712
1610.000000	30.961505
1609.000000	30.900111
1608.000000	30.847457
1607.000000	30.784108
1606.000000	30.728267
1605.000000	30.689908
1604.000000	30.623062
1603.000000	30.550561
1602.000000	30.492766
1601.000000	30.457183
1600.000000	30.394966
1599.000000	30.329046
1598.000000	30.286368
1597.000000	30.226001
1596.000000	30.160699
1595.000000	30.121517
1594.000000	30.080793
1593.000000	30.026802
1592.000000	29.970138
1591.000000	29.932396
1590.000000	29.901750
1589.000000	29.848891
1588.000000	29.810532
1587.000000	29.782971
1586.000000	29.732169
1585.000000	29.690211
1584.000000	29.668306
1583.000000	29.627582
1582.000000	29.576985
1581.000000	29.555595
1580.000000	29.535850
1579.000000	29.502838
1578.000000	29.475792
1577.000000	29.439592
1576.000000	29.434450
1575.000000	29.414808
1574.000000	29.402056
1573.000000	29.403907
1572.000000	29.391978
1571.000000	29.397120
1570.000000	29.389304
1569.000000	29.394960
1568.000000	29.392801
1567.000000	29.412031
1566.000000	29.417688
1565.000000	29.420156
1564.000000	29.433833
1563.000000	29.440106
1562.000000	29.438667
1561.000000	29.454401
1560.000000	29.449465
1559.000000	29.445248
1558.000000	29.465199
1557.000000	29.462217
1556.000000	29.442883
1555.000000	29.441032
1554.000000	29.422521
1553.000000	29.394652
1552.000000	29.382517
1551.000000	29.363286
1550.000000	29.341073
1549.000000	29.323281
1548.000000	29.303948
1547.000000	29.281837
1546.000000	29.257259
1545.000000	29.219311
1544.000000	29.195864
1543.000000	29.171594
1542.000000	29.152158
1541.000000	29.131281
1540.000000	29.129327
1539.000000	29.122951
1538.000000	29.105160
1537.000000	29.095082
1536.000000	29.086238
1535.000000	29.073897
1534.000000	29.047570
1533.000000	29.035333
1532.000000	29.006949
1531.000000	28.989672
1530.000000	28.979800
1529.000000	28.954707
1528.000000	28.930334
1527.000000	28.923444
1526.000000	28.904419
1525.000000	28.877063
1524.000000	28.848474
1523.000000	28.818137
1522.000000	28.793970
1521.000000	28.774430
1520.000000	28.745430
1519.000000	28.700798
1518.000000	28.673957
1517.000000	28.655857
1516.000000	28.616778
1515.000000	28.575540
1514.000000	28.540060
1513.000000	28.507460
1512.000000	28.474141
1511.000000	28.436604
1510.000000	28.401742
1509.000000	28.359681
1508.000000	28.318854
1507.000000	28.275661
1506.000000	28.234834
1505.000000	28.200795
1504.000000	28.165212
1503.000000	28.111016
1502.000000	28.079033
1501.000000	28.046536
1500.000000	28.011571
1499.000000	27.981748
1498.000000	27.951513
1497.000000	27.921690
1496.000000	27.902459
1495.000000	27.883331
1494.000000	27.852274
1493.000000	27.833248
1492.000000	27.811138
1491.000000	27.792936
1490.000000	27.778950
1489.000000	27.771031
1488.000000	27.770517
1487.000000	27.746555
1486.000000	27.730101
1485.000000	27.727119
1484.000000	27.685983
1483.000000	27.665004
1482.000000	27.668295
1481.000000	27.660068
1480.000000	27.671174
1479.000000	27.671791
1478.000000	27.664798
1477.000000	27.672203
1476.000000	27.666752
1475.000000	27.666649
1474.000000	27.680224
1473.000000	27.707888
1472.000000	27.739357
1471.000000	27.755091
1470.000000	27.777715
1469.000000	27.782446
1468.000000	27.777304
1467.000000	27.802191
1466.000000	27.833454
1465.000000	27.845178
1464.000000	27.873870
1463.000000	27.921176
1462.000000	27.961283
1461.000000	27.984010
1460.000000	28.024118
1459.000000	28.069367
1458.000000	28.101967
1457.000000	28.150609
1456.000000	28.217352
1455.000000	28.292938
1454.000000	28.348369
1453.000000	28.407398
1452.000000	28.488332
1451.000000	28.562993
1450.000000	28.649378
1449.000000	28.710156
1448.000000	28.768774
1447.000000	28.851045
1446.000000	28.951005
1445.000000	29.030088
1444.000000	29.101869
1443.000000	29.175502
1442.000000	29.281220
1441.000000	29.366782
1440.000000	29.470855
1439.000000	29.565776
1438.000000	29.651646
1437.000000	29.771042
1436.000000	29.847349
1435.000000	29.938567
1434.000000	30.033076
1433.000000	30.150518
1432.000000	30.264258
1431.000000	30.387150
1430.000000	30.488035
1429.000000	30.615144
1428.000000	30.741841
1427.000000	30.884479
1426.000000	31.018992
1425.000000	31.182198
1424.000000	31.350751
1423.000000	31.531439
1422.000000	31.699889
1421.000000	31.864842
1420.000000	32.068772
1419.000000	32.269513
1418.000000	32.445985
1417.000000	32.616903
1416.000000	32.796974
1415.000000	33.023734
1414.000000	33.287413
1413.000000	33.467175
1412.000000	33.670077
1411.000000	33.887581
1410.000000	34.138713
1409.000000	34.432319
1408.000000	34.714200
1407.000000	34.998035
1406.000000	35.294829
1405.000000	35.606739
1404.000000	35.914536
1403.000000	36.187676
1402.000000	36.527970
1401.000000	36.841731
1400.000000	37.189533
1399.000000	37.453006
1398.000000	37.651485
1397.000000	37.853975
1396.000000	38.141718
1395.000000	38.408174
1394.000000	38.607167
1393.000000	38.765950
1392.000000	38.942833
1391.000000	39.152316
1390.000000	39.358200
1389.000000	39.597506
1388.000000	39.861185
1387.000000	40.172375
1386.000000	40.459296
1385.000000	40.786632
1384.000000	41.162097
1383.000000	41.533654
1382.000000	41.944598
1381.000000	42.222777
1380.000000	42.499928
1379.000000	42.642155
1378.000000	42.799087
1377.000000	42.924036
1376.000000	43.059269
1375.000000	43.185967
1374.000000	43.338991
1373.000000	43.527700
1372.000000	43.776262
1371.000000	44.044157
1370.000000	44.255594
1369.000000	44.487187
1368.000000	44.726802
1367.000000	44.923224
1366.000000	45.107615
1365.000000	45.267838
1364.000000	45.416440
1363.000000	45.544886
1362.000000	45.696367
1361.000000	45.841576
1360.000000	45.907701
1359.000000	45.894435
1358.000000	46.004164
1357.000000	46.066793
1356.000000	46.181767
1355.000000	46.347955
1354.000000	46.601247
1353.000000	46.867600
1352.000000	47.126240
1351.000000	47.504378
1350.000000	47.865034
1349.000000	48.157920
1348.000000	48.464997
1347.000000	48.747289
1346.000000	49.026394
1345.000000	49.247806
1344.000000	49.530305
1343.000000	49.767760
1342.000000	49.988452
1341.000000	50.210379
1340.000000	50.448656
1339.000000	50.642096
1338.000000	50.870502
1337.000000	51.056743
1336.000000	51.247406
1335.000000	51.448353
1334.000000	51.619374
1333.000000	51.825258
1332.000000	52.007386
1331.000000	52.166066
1330.000000	52.327215
1329.000000	52.499367
1328.000000	52.644884
1327.000000	52.785362
1326.000000	52.924606
1325.000000	53.050172
1324.000000	53.180675
1323.000000	53.294826
1322.000000	53.417410
1321.000000	53.543490
1320.000000	53.633783
1319.000000	53.743512
1318.000000	53.835553
1317.000000	53.935204
1316.000000	54.026731
1315.000000	54.112087
1314.000000	54.201145
1313.000000	54.271281
1312.000000	54.336687
1311.000000	54.408880
1310.000000	54.495162
1309.000000	54.563858
1308.000000	54.620728
1307.000000	54.673279
1306.000000	54.722436
1305.000000	54.766759
1304.000000	54.815505
1303.000000	54.833296
1302.000000	54.867541
1301.000000	54.894485
1300.000000	54.911145
1299.000000	54.921738
1298.000000	54.932639
1297.000000	54.949401
1296.000000	54.957526
1295.000000	54.968529
1294.000000	54.979533
1293.000000	54.971820
1292.000000	54.974905
1291.000000	54.951355
1290.000000	54.933975
1289.000000	54.921326
1288.000000	54.891297
1287.000000	54.856949
1286.000000	54.832885
1285.000000	54.802856
1284.000000	54.752362
1283.000000	54.704130
1282.000000	54.663509
1281.000000	54.604994
1280.000000	54.557791
1279.000000	54.516244
1278.000000	54.479325
1277.000000	54.410937
1276.000000	54.376074
1275.000000	54.339258
1274.000000	54.305938
1273.000000	54.268196
1272.000000	54.242898
1271.000000	54.203511
1270.000000	54.158879
1269.000000	54.129467
1268.000000	54.090285
1267.000000	54.077944
1266.000000	54.043185
1265.000000	54.000918
1264.000000	53.963279
1263.000000	53.935512
1262.000000	53.909803
1261.000000	53.869387
1260.000000	53.833291
1259.000000	53.796577
1258.000000	53.757190
1257.000000	53.720373
1256.000000	53.699189
1255.000000	53.664429
1254.000000	53.608382
1253.000000	53.561076
1252.000000	53.507394
1251.000000	53.451758
1250.000000	53.423580
1249.000000	53.366710
1248.000000	53.285159
1247.000000	53.202168
1246.000000	53.119897
1245.000000	53.043796
1244.000000	52.965844
1243.000000	52.877300
1242.000000	52.783202
1241.000000	52.679746
1240.000000	52.585238
1239.000000	52.484353
1238.000000	52.380280
1237.000000	52.258210
1236.000000	52.137374
1235.000000	52.032993
1234.000000	51.911540
1233.000000	51.797183
1232.000000	51.676656
1231.000000	51.548724
1230.000000	51.420895
1229.000000	51.299340
1228.000000	51.174493
1227.000000	51.033193
1226.000000	50.897342
1225.000000	50.759127
1224.000000	50.622763
1223.000000	50.493391
1222.000000	50.344069
1221.000000	50.194336
1220.000000	50.058485
1219.000000	49.933639
1218.000000	49.810849
1217.000000	49.694539
1216.000000	49.583164
1215.000000	49.463254
1214.000000	49.357330
1213.000000	49.256342
1212.000000	49.153812
1211.000000	49.064445
1210.000000	48.989886
1209.000000	48.906073
1208.000000	48.823596
1207.000000	48.751300
1206.000000	48.674788
1205.000000	48.623986
1204.000000	48.588198
1203.000000	48.549222
1202.000000	48.527317
1201.000000	48.500784
1200.000000	48.459238
1199.000000	48.421290
1198.000000	48.366785
1197.000000	48.298295
1196.000000	48.210984
1195.000000	48.074312
1194.000000	47.915014
1193.000000	47.709233
1192.000000	47.455427
1191.000000	47.177145
1190.000000	46.883745
1189.000000	46.598059
1188.000000	46.336334
1187.000000	46.138678
1186.000000	46.014757
1185.000000	45.969096
1184.000000	46.011980
1183.000000	46.157703
1182.000000	46.376750
1181.000000	46.655237
1180.000000	46.961800
1179.000000	47.297466
1178.000000	47.630767
1177.000000	47.951008
1176.000000	48.225176
1175.000000	48.454096
1174.000000	48.668206
1173.000000	48.898051
1172.000000	49.125634
1171.000000	49.346017
1170.000000	49.576171
1169.000000	49.811055
1168.000000	50.051492
1167.000000	50.317228
1166.000000	50.568875
1165.000000	50.820522
1164.000000	51.067027
1163.000000	51.344692
1162.000000	51.616803
1161.000000	51.871741
1160.000000	52.139637
1159.000000	52.408663
1158.000000	52.653934
1157.000000	52.891492
1156.000000	53.135631
1155.000000	53.322387
1154.000000	53.495156
1153.000000	53.645815
1152.000000	53.757190
1151.000000	53.836067
1150.000000	53.899622
1149.000000	53.943945
1148.000000	53.998038
1147.000000	54.059022
1146.000000	54.120520
1145.000000	54.224078
1144.000000	54.395202
1143.000000	54.560670
1142.000000	54.782082
1141.000000	55.033215
1140.000000	55.274064
1139.000000	55.532189
1138.000000	55.799673
1137.000000	56.074665
1136.000000	56.378965
1135.000000	56.686762
1134.000000	57.000729
1133.000000	57.278600
1132.000000	57.516055
1131.000000	57.751556
1130.000000	57.996004
1129.000000	58.203636
1128.000000	58.379799
1127.000000	58.524390
1126.000000	58.625070
1125.000000	58.719990
1124.000000	58.820978
1123.000000	58.899032
1122.000000	58.938934
1121.000000	59.001357
1120.000000	59.025422
1119.000000	59.064706
1118.000000	59.101522
1117.000000	59.105533
1116.000000	59.121987
1115.000000	59.122707
1114.000000	59.124455
1113.000000	59.133814
1112.000000	59.113863
1111.000000	59.123633
1110.000000	59.137619
1109.000000	59.141938
1108.000000	59.136693
1107.000000	59.149548
1106.000000	59.131346
1105.000000	59.127746
1104.000000	59.132682
1103.000000	59.136693
1102.000000	59.135562
1101.000000	59.142144
1100.000000	59.136796
1099.000000	59.147491
1098.000000	59.138339
1097.000000	59.144509
1096.000000	59.139367
1095.000000	59.119416
1094.000000	59.098334
1093.000000	59.102756
1092.000000	59.088667
1091.000000	59.067380
1090.000000	59.058947
1089.000000	59.055348
1088.000000	59.034368
1087.000000	59.007116
1086.000000	58.987063
1085.000000	58.962381
1084.000000	58.958268
1083.000000	58.928547
1082.000000	58.902940
1081.000000	58.878979
1080.000000	58.850801
1079.000000	58.807094
1078.000000	58.791154
1077.000000	58.762977
1076.000000	58.745083
1075.000000	58.716391
1074.000000	58.681014
1073.000000	58.661475
1072.000000	58.647591
1071.000000	58.583728
1070.000000	58.563161
1069.000000	58.546501
1068.000000	58.531178
1067.000000	58.487677
1066.000000	58.448907
1065.000000	58.430807
1064.000000	58.399955
1063.000000	58.377639
1062.000000	58.344319
1061.000000	58.337326
1060.000000	58.288992
1059.000000	58.288581
1058.000000	58.244051
1057.000000	58.205693
1056.000000	58.178132
1055.000000	58.164968
1054.000000	58.129797
1053.000000	58.103471
1052.000000	58.053902
1051.000000	58.057296
1050.000000	58.027576
1049.000000	58.014412
1048.000000	57.985926
1047.000000	57.980681
1046.000000	57.970808
1045.000000	57.952297
1044.000000	57.948801
1043.000000	57.945510
1042.000000	57.928233
1041.000000	57.930598
1040.000000	57.941602
1039.000000	57.927513
1038.000000	57.922577
1037.000000	57.911059
1036.000000	57.899027
1035.000000	57.882058
1034.000000	57.889257
1033.000000	57.861182
1032.000000	57.846271
1031.000000	57.818915
1030.000000	57.801638
1029.000000	57.804518
1028.000000	57.776649
1027.000000	57.738804
1026.000000	57.718339
1025.000000	57.691292
1024.000000	57.647997
1023.000000	57.614677
1022.000000	57.602234
1021.000000	57.565623
1020.000000	57.531686
1019.000000	57.502583
1018.000000	57.480370
1017.000000	57.449827
1016.000000	57.451163
1015.000000	57.441085
1014.000000	57.426379
1013.000000	57.438720
1012.000000	57.438720
1011.000000	57.453940
1010.000000	57.465252
1009.000000	57.480473
1008.000000	57.501246
1007.000000	57.532201
1006.000000	57.578170
1005.000000	57.612209
1004.000000	57.635656
1003.000000	57.657972
1002.000000	57.688721
1001.000000	57.731708
1000.000000	57.743123
999.000000	57.779322
998.000000	57.799479
997.000000	57.832079
996.000000	57.878253
995.000000	57.905506
994.000000	57.928027
993.000000	57.961759
992.000000	57.987571
991.000000	58.049275
990.000000	58.079509
989.000000	58.116531
988.000000	58.161883
987.000000	58.217210
986.000000	58.254747
985.000000	58.287758
984.000000	58.318815
983.000000	58.367252
982.000000	58.417129
981.000000	58.459499
980.000000	58.494053
979.000000	58.525830
978.000000	58.547838
977.000000	58.577147
976.000000	58.614374
975.000000	58.652939
974.000000	58.691195
973.000000	58.729862
972.000000	58.768736
971.000000	58.807609
970.000000	58.838460
969.000000	58.855017
968.000000	58.899855
967.000000	58.947367
966.000000	58.996010
965.000000	59.050926
964.000000	59.093809
963.000000	59.159935
962.000000	59.219684
961.000000	59.277480
960.000000	59.340314
959.000000	59.408188
958.000000	59.492413
957.000000	59.556996
956.000000	59.615100
955.000000	59.697679
954.000000	59.760823
953.000000	59.804529
952.000000	59.866130
951.000000	59.926393
950.000000	59.975859
949.000000	60.032523
948.000000	60.072424
947.000000	60.115514
946.000000	60.178966
945.000000	60.233470
944.000000	60.285198
943.000000	60.326128
942.000000	60.388654
941.000000	60.447684
940.000000	60.478124
939.000000	60.520494
938.000000	60.587442
937.000000	60.646985
936.000000	60.682671
935.000000	60.730696
934.000000	60.784995
933.000000	60.855234
932.000000	60.910356
931.000000	60.958999
930.000000	61.005173
929.000000	61.061118
928.000000	61.112434
927.000000	61.141949
926.000000	61.189872
925.000000	61.251575
924.000000	61.275743
923.000000	61.312765
922.000000	61.351535
921.000000	61.383929
920.000000	61.421260
919.000000	61.462601
918.000000	61.525333
917.000000	61.558652
916.000000	61.564514
915.000000	61.587859
914.000000	61.622927
913.000000	61.683293
912.000000	61.711677
911.000000	61.742528
910.000000	61.791274
909.000000	61.837140
908.000000	61.895347
907.000000	61.952937
906.000000	62.012583
905.000000	62.080971
904.000000	62.161494
903.000000	62.227208
902.000000	62.303103
901.000000	62.377970
900.000000	62.476284
899.000000	62.568428
898.000000	62.641135
897.000000	62.719909
896.000000	62.821720
895.000000	62.899158
894.000000	62.998809
893.000000	63.086839
892.000000	63.173326
891.000000	63.257037
890.000000	63.339000
889.000000	63.427338
888.000000	63.518042
887.000000	63.598668
886.000000	63.692971
885.000000	63.760536
884.000000	63.847024
883.000000	63.926004
882.000000	64.005087
881.000000	64.080160
880.000000	64.150193
879.000000	64.213542
878.000000	64.288923
877.000000	64.342605
876.000000	64.373353
875.000000	64.371399
874.000000	64.383432
873.000000	64.344661
872.000000	64.268766
871.000000	64.189477
870.000000	64.174669
869.000000	64.275142
868.000000	64.459532
867.000000	64.599908
866.000000	64.747687
865.000000	64.910687
864.000000	65.074920
863.000000	65.237303
862.000000	65.416243
861.000000	65.554355
860.000000	65.707380
859.000000	65.883029
858.000000	66.049833
857.000000	65.768300
856.000000	66.157200
855.000000	66.224000
854.000000	66.127400
853.000000	66.346900
852.000000	66.496300
851.000000	66.735000
850.000000	66.918400
849.000000	67.258700
848.000000	67.078800
847.000000	67.164800
846.000000	67.307100
845.000000	67.452900
844.000000	67.710700
843.000000	67.982200
842.000000	68.332500
841.000000	68.804000
840.000000	68.668000
839.000000	68.845100
838.000000	68.823300
837.000000	68.844700
836.000000	69.441900
835.000000	69.482700
834.000000	69.659600
833.000000	70.156700
832.000000	70.228300
831.000000	70.413400
830.000000	70.391600
829.000000	70.995300
828.000000	70.997500
827.000000	71.199200
826.000000	71.390200
825.000000	71.841600
824.000000	72.034700
823.000000	71.969600
822.000000	72.125600
821.000000	72.132600
820.000000	72.274800
819.000000	72.493000
818.000000	72.543900
817.000000	72.494300
816.000000	72.388000
815.000000	72.470600
814.000000	72.347000
813.000000	72.430700
812.000000	72.529000
811.000000	72.434400
810.000000	72.489000
809.000000	72.646800
808.000000	72.719300
807.000000	72.599000
806.000000	72.368300
805.000000	72.570200
804.000000	72.360900
803.000000	72.563100
802.000000	72.233700
801.000000	72.446500
800.000000	72.167100
799.000000	72.219400
798.000000	72.142700
797.000000	72.210400
796.000000	72.065300
795.000000	72.071300
794.000000	72.041200
793.000000	72.110800
792.000000	72.080700
791.000000	72.093600
790.000000	71.926100
789.000000	72.056400
788.000000	72.097700
787.000000	71.954900
786.000000	72.218300
785.000000	72.143900
784.000000	72.000400
783.000000	71.956000
782.000000	72.064900
781.000000	72.073000
780.000000	71.638900
779.000000	71.563800
778.000000	71.420600
777.000000	71.274000
776.000000	71.084800
775.000000	70.911900
774.000000	70.603900
773.000000	70.670300
772.000000	70.535600
771.000000	70.283100
770.000000	69.992500
769.000000	69.875500
768.000000	69.824600
767.000000	69.634300
766.000000	69.473800
765.000000	69.232000
764.000000	69.087700
763.000000	68.777800
762.000000	68.718600
761.000000	68.579800
760.000000	68.326200
759.000000	68.114600
758.000000	67.973900
757.000000	67.786400
756.000000	67.553500
755.000000	67.387000
754.000000	67.227800
753.000000	67.030600
752.000000	66.967500
751.000000	66.661600
750.000000	66.564600
749.000000	66.495300
748.000000	66.285600
747.000000	66.096700
746.000000	66.060800
745.000000	65.946900
744.000000	65.682200
743.000000	65.457200
742.000000	65.335900
741.000000	65.139200
740.000000	64.922400
739.000000	64.855900
738.000000	64.637100
737.000000	64.431200
736.000000	64.328100
735.000000	64.119800
734.000000	64.020700
733.000000	63.909700
732.000000	63.783500
731.000000	63.592600
730.000000	63.549200
729.000000	63.501000
728.000000	63.492700
727.000000	63.404100
726.000000	63.334600
725.000000	63.267500
724.000000	63.153500
723.000000	63.062200
722.000000	63.035900
721.000000	62.962300
720.000000	62.818500
719.000000	62.664800
718.000000	62.583500
717.000000	62.397700
716.000000	62.252800
715.000000	62.067800
714.000000	61.921500
713.000000	61.708900
712.000000	61.530800
711.000000	61.269700
710.000000	61.205700
709.000000	61.016700
708.000000	60.856700
707.000000	60.700500
706.000000	60.518800
705.000000	60.375700
704.000000	60.279100
703.000000	60.086700
702.000000	59.856200
701.000000	59.671300
700.000000	59.472800
699.000000	59.241000
698.000000	59.026700
697.000000	58.773900
696.000000	58.470000
695.000000	58.206200
694.000000	57.898800
693.000000	57.610400
692.000000	57.328700
691.000000	57.036000
690.000000	56.707900
689.000000	56.374000
688.000000	56.138100
687.000000	55.823100
686.000000	55.426300
685.000000	55.101600
684.000000	54.715900
683.000000	54.326100
682.000000	53.955300
681.000000	53.582500
680.000000	53.171200
679.000000	52.742900
678.000000	52.345600
677.000000	51.970500
676.000000	51.515200
675.000000	51.063400
674.000000	50.623200
673.000000	50.178200
672.000000	49.753400
671.000000	49.335900
670.000000	48.947600
669.000000	48.549300
668.000000	48.214800
667.000000	47.872200
666.000000	47.580000
665.000000	47.324300
664.000000	47.107500
663.000000	46.927500
662.000000	46.813900
661.000000	46.716900
660.000000	46.660700
659.000000	46.635200
658.000000	46.643700
657.000000	46.703700
656.000000	46.734600
655.000000	46.784600
654.000000	46.861000
653.000000	46.972600
652.000000	47.095600
651.000000	47.234100
650.000000	47.379700
649.000000	47.558800
648.000000	47.776300
647.000000	48.030300
646.000000	48.345500
645.000000	48.699200
644.000000	49.108000
643.000000	49.560500
642.000000	50.063600
641.000000	50.587900
640.000000	51.153600
639.000000	51.743600
638.000000	52.351600
637.000000	53.002000
636.000000	53.608000
635.000000	54.220500
634.000000	54.833300
633.000000	55.436300
632.000000	56.013300
631.000000	56.553600
630.000000	57.065100
629.000000	57.573200
628.000000	58.047600
627.000000	58.509200
626.000000	58.958700
625.000000	59.381100
624.000000	59.801600
623.000000	60.246800
622.000000	60.707300
621.000000	61.215000
620.000000	61.702000
619.000000	62.214300
618.000000	62.776400
617.000000	63.304400
616.000000	63.818000
615.000000	64.350500
614.000000	64.924000
613.000000	65.455500
612.000000	65.960300
611.000000	66.486100
610.000000	66.953100
609.000000	67.414100
608.000000	67.816900
607.000000	68.219400
606.000000	68.616800
605.000000	68.926600
604.000000	69.252000
603.000000	69.565600
602.000000	69.841400
601.000000	70.138900
600.000000	70.354200
599.000000	70.605400
598.000000	70.828300
597.000000	71.029400
596.000000	71.195400
595.000000	71.372100
594.000000	71.590700
593.000000	71.749100
592.000000	71.866900
591.000000	72.007400
590.000000	72.162800
589.000000	72.280300
588.000000	72.388200
587.000000	72.517800
586.000000	72.597000
585.000000	72.667700
584.000000	72.719200
583.000000	72.797800
582.000000	72.813600
581.000000	72.832600
580.000000	72.869500
579.000000	72.830300
578.000000	72.775000
577.000000	72.719000
576.000000	72.598800
575.000000	72.452100
574.000000	72.342800
573.000000	72.191400
572.000000	71.993300
571.000000	71.764100
570.000000	71.489400
569.000000	71.208400
568.000000	70.899500
567.000000	70.574500
566.000000	70.237700
565.000000	69.833600
564.000000	69.392100
563.000000	68.960500
562.000000	68.498700
561.000000	68.032600
560.000000	67.515900
559.000000	67.065200
558.000000	66.557000
557.000000	65.971500
556.000000	65.381600
555.000000	64.823300
554.000000	64.138300
553.000000	63.542900
552.000000	62.884400
551.000000	62.181900
550.000000	61.466800
549.000000	60.722600
548.000000	59.968700
547.000000	59.150600
546.000000	58.369500
545.000000	57.507700
544.000000	56.603700
543.000000	55.678300
542.000000	54.710500
541.000000	53.712200
540.000000	52.688100
539.000000	51.628700
538.000000	50.516000
537.000000	49.368000
536.000000	48.202600
535.000000	46.984700
534.000000	45.748200
533.000000	44.482000
532.000000	43.162000
531.000000	41.852900
530.000000	40.550300
529.000000	39.222800
528.000000	37.949000
527.000000	36.686400
526.000000	35.480100
525.000000	34.299000
524.000000	33.125200
523.000000	32.028600
522.000000	31.002400
521.000000	30.016600
520.000000	29.090400
519.000000	28.292800
518.000000	27.530300
517.000000	26.842800
516.000000	26.250100
515.000000	25.728100
514.000000	25.241900
513.000000	24.839500
512.000000	24.472100
511.000000	24.168800
510.000000	23.939900
509.000000	23.719500
508.000000	23.574400
507.000000	23.486600
506.000000	23.347700
505.000000	23.289800
504.000000	23.214200
503.000000	23.172700
502.000000	23.120100
501.000000	23.105900
500.000000	23.047400
499.000000	23.003200
498.000000	22.920300
497.000000	22.838700
496.000000	22.702200
495.000000	22.622900
494.000000	22.471300
493.000000	22.308200
492.000000	22.091200
491.000000	21.835800
490.000000	21.564700
489.000000	21.306900
488.000000	20.981400
487.000000	20.645900
486.000000	20.266200
485.000000	19.890900
484.000000	19.509500
483.000000	19.091300
482.000000	18.687300
481.000000	18.248500
480.000000	17.825900
479.000000	17.446200
478.000000	17.116200
477.000000	16.773800
476.000000	16.467600
475.000000	16.179800
474.000000	15.922900
473.000000	15.713500
472.000000	15.521800
471.000000	15.360100
470.000000	15.203600
469.000000	15.123600
468.000000	15.064200
467.000000	15.043700
466.000000	15.017900
465.000000	15.018200
464.000000	15.063300
463.000000	15.120500
462.000000	15.188300
461.000000	15.295300
460.000000	15.408500
459.000000	15.503500
458.000000	15.622900
457.000000	15.745300
456.000000	15.867300
455.000000	15.983900
454.000000	16.115300
453.000000	16.239800
452.000000	16.369300
451.000000	16.440400
450.000000	16.522700
449.000000	16.589800
448.000000	16.637500
447.000000	16.707500
446.000000	16.698900
445.000000	16.736200
444.000000	16.728200
443.000000	16.682900
442.000000	16.663000
441.000000	16.628800
440.000000	16.565000
439.000000	16.464900
438.000000	16.383300
437.000000	16.293600
436.000000	16.189800
435.000000	16.040200
434.000000	15.914800
433.000000	15.750700
432.000000	15.602700
431.000000	15.428200
430.000000	15.266800
429.000000	15.051800
428.000000	14.870700
427.000000	14.684200
426.000000	14.491900
425.000000	14.256100
424.000000	14.025900
423.000000	13.800500
422.000000	13.550900
421.000000	13.302200
420.000000	13.086100
419.000000	12.805400
418.000000	12.553800
417.000000	12.297000
416.000000	12.038500
415.000000	11.744300
414.000000	11.495500
413.000000	11.210500
412.000000	10.943800
411.000000	10.677300
410.000000	10.414700
409.000000	10.167700
408.000000	9.899200
407.000000	9.671500
406.000000	9.447400
405.000000	9.207100
404.000000	8.975100
403.000000	8.772600
402.000000	8.555900
401.000000	8.356900
400.000000	8.176600
399.000000	7.989500
398.000000	7.829800
397.000000	7.668900
396.000000	7.524700
395.000000	7.383700
394.000000	7.230800
393.000000	7.110200
392.000000	7.011600
391.000000	6.932600
390.000000	6.818200
389.000000	6.723500
388.000000	6.639500
387.000000	6.552900
386.000000	6.528000
385.000000	6.472600
384.000000	6.405200
383.000000	6.358100
382.000000	6.304900
381.000000	6.258900
380.000000	6.226000
379.000000	6.202400
378.000000	6.170200
377.000000	6.132100
376.000000	6.080100
375.000000	5.856600
374.000000	5.660100
373.000000	5.796600
372.000000	5.913300
371.000000	5.906600
370.000000	5.748500
369.000000	5.914900
368.000000	5.968800
367.000000	5.941500
366.000000	5.845100
365.000000	5.919600
364.000000	6.018400
363.000000	6.061200
362.000000	6.140900
361.000000	6.017300
360.000000	6.012600
359.000000	5.998400
358.000000	6.043500
357.000000	5.958700
356.000000	5.812300
355.000000	5.905100
354.000000	5.943300
353.000000	5.841900
352.000000	5.871300
351.000000	5.962400
350.000000	5.912200
349.000000	5.891900
348.000000	5.996100
347.000000	6.153400
346.000000	6.241200
345.000000	6.145100
344.000000	6.032800
343.000000	6.030400
342.000000	6.160700
341.000000	6.270800
340.000000	6.224300
339.000000	6.194300
338.000000	6.038200
337.000000	6.098200
336.000000	6.028500
335.000000	5.826000
334.000000	5.839700
333.000000	5.964500
332.000000	6.394200
331.000000	6.752800
330.000000	6.587200
329.000000	6.144100
328.000000	6.047400
327.000000	6.133500
326.000000	6.333400
325.000000	6.416700
324.000000	6.151100
323.000000	6.064500
322.000000	6.047800
321.000000	6.622200
320.000000	7.240500
319.000000	7.432300
318.000000	7.126600
317.000000	6.906600
316.000000	6.391900
315.000000	5.898900
314.000000	5.920500
313.000000	5.940400
312.000000	5.965600
311.000000	5.995600
310.000000	5.988600
309.000000	5.995800
308.000000	5.983800
307.000000	5.996700
306.000000	5.976200
305.000000	5.965800
304.000000	6.025700
303.000000	6.027500
302.000000	5.984000
301.000000	6.000000
300.000000	6.014300
299.000000	6.035600
298.000000	6.045600
297.000000	6.088700
296.000000	6.101300
295.000000	6.074300
294.000000	6.105600
293.000000	6.139000
292.000000	6.108600
291.000000	6.079700
290.000000	6.082500
289.000000	6.149800
288.000000	6.135500
287.000000	6.128700
286.000000	6.119400
285.000000	6.153000
284.000000	6.151700
283.000000	6.162500
282.000000	6.160300
281.000000	6.163800
280.000000	6.226100
279.000000	6.228300
278.000000	6.181000
277.000000	6.202900
276.000000	6.235700
275.000000	6.248500
274.000000	6.246000
273.000000	6.280500
272.000000	6.301000
271.000000	6.299100
270.000000	6.330600
269.000000	6.375200
268.000000	6.355700
267.000000	6.388800
266.000000	6.413800
265.000000	6.464000
264.000000	6.496900
263.000000	6.536900
262.000000	6.572000
261.000000	6.530100
260.000000	6.571100
259.000000	6.669900
258.000000	6.601800
257.000000	6.585300
256.000000	6.625100
255.000000	6.718600
254.000000	6.749700
253.000000	6.756400
252.000000	6.785200
251.000000	6.781100
250.000000	6.800200
