PE UV       SUBTECH     SPECTRUM    ASCII       PEDS        4.00        
   -1
CICIMAUCR0012-3.Sample.ASC
24/04/12
09:39:08.00
24/04/12
09:39:08.00
Vinicio Soto Monge
C. cupreomarginata
250,000000
1
Lambda 1050
1050L1511233
PerkinElmer UV WinLab 6.3.2.0749 / 2.02.05 Lambda 900 UV/VIS/NIR, Aug  7 2015 09:38:08

0
0
3350/servo 860,8/2
0
0
UV/VIS
1
1
1
DoubleDePol,CommonBeamDepol,RBeamAtt,SBeamAtt,60mm sphere, WB InGaAs Detector
0
0
0
0
Program
Program
3350/servo 860,8/2
3350/0,2 860,8/0,2
3350/0,2 860,8/0,2
0
15.00
 
 
 
0
 
860,8
319,2
860,8
Front
100
on
S:100 R:100
0
0
0
0
 
0
 
 
 
0
 
 
0
0
0
0
0
 
 
 
 
0
0


0
0
#HDR
-1
-1
#GR
nm
%R
1.0
0.0
2500,000000
-1,000000
2251
8
59,329800
5,000400
#DATA
2482.000000	7.149594
2481.000000	7.153652
2480.000000	7.108895
2479.000000	7.095647
2478.000000	7.060677
2477.000000	7.058051
2476.000000	7.088366
2475.000000	7.072373
2474.000000	7.048025
2473.000000	7.083234
2472.000000	7.120830
2471.000000	7.036209
2470.000000	7.097318
2469.000000	7.095528
2468.000000	7.061751
2467.000000	7.077267
2466.000000	7.067480
2465.000000	7.076670
2464.000000	7.116772
2463.000000	7.141359
2462.000000	7.155443
2461.000000	7.149236
2460.000000	7.153652
2459.000000	7.172033
2458.000000	7.211419
2457.000000	7.199484
2456.000000	7.212374
2455.000000	7.259757
2454.000000	7.293295
2453.000000	7.322656
2452.000000	7.382929
2451.000000	7.398206
2450.000000	7.422316
2449.000000	7.449648
2448.000000	7.504669
2447.000000	7.506221
2446.000000	7.551814
2445.000000	7.601822
2444.000000	7.656009
2443.000000	7.667825
2442.000000	7.716282
2441.000000	7.744927
2440.000000	7.787297
2439.000000	7.827519
2438.000000	7.835635
2437.000000	7.879676
2436.000000	7.908321
2435.000000	7.928491
2434.000000	7.958688
2433.000000	7.999864
2432.000000	8.036028
2431.000000	8.036625
2430.000000	8.072192
2429.000000	8.098808
2428.000000	8.164333
2427.000000	8.218280
2426.000000	8.291085
2425.000000	8.336917
2424.000000	8.380958
2423.000000	8.402800
2422.000000	8.411632
2421.000000	8.446483
2420.000000	8.445647
2419.000000	8.487779
2418.000000	8.532775
2417.000000	8.535759
2416.000000	8.556645
2415.000000	8.579919
2414.000000	8.624438
2413.000000	8.662631
2412.000000	8.679221
2411.000000	8.689008
2410.000000	8.696288
2409.000000	8.721591
2408.000000	8.757994
2407.000000	8.769452
2406.000000	8.780671
2405.000000	8.832350
2404.000000	8.849657
2403.000000	8.876869
2402.000000	8.910407
2401.000000	8.950152
2400.000000	8.980706
2399.000000	8.989658
2398.000000	8.995864
2397.000000	9.006844
2396.000000	9.050886
2395.000000	9.063060
2394.000000	9.105907
2393.000000	9.142907
2392.000000	9.128584
2391.000000	9.151023
2390.000000	9.192080
2389.000000	9.204612
2388.000000	9.209506
2387.000000	9.204970
2386.000000	9.207118
2385.000000	9.213444
2384.000000	9.234808
2383.000000	9.235882
2382.000000	9.243044
2381.000000	9.235166
2380.000000	9.236718
2379.000000	9.235763
2378.000000	9.224663
2377.000000	9.219054
2376.000000	9.219412
2375.000000	9.205089
2374.000000	9.184919
2373.000000	9.177996
2372.000000	9.168448
2371.000000	9.163555
2370.000000	9.146248
2369.000000	9.113426
2368.000000	9.088720
2367.000000	9.078695
2366.000000	9.034057
2365.000000	8.988106
2364.000000	8.966384
2363.000000	8.943707
2362.000000	8.897517
2361.000000	8.853476
2360.000000	8.831634
2359.000000	8.800961
2358.000000	8.770884
2357.000000	8.743910
2356.000000	8.737823
2355.000000	8.738897
2354.000000	8.725530
2353.000000	8.703449
2352.000000	8.720517
2351.000000	8.744865
2350.000000	8.760142
2349.000000	8.783893
2348.000000	8.819341
2347.000000	8.846195
2346.000000	8.867440
2345.000000	8.914585
2344.000000	8.949316
2343.000000	8.977484
2342.000000	9.019376
2341.000000	9.038354
2340.000000	9.048379
2339.000000	9.075353
2338.000000	9.080724
2337.000000	9.083588
2336.000000	9.075711
2335.000000	9.083469
2334.000000	9.084782
2333.000000	9.047186
2332.000000	9.028567
2331.000000	9.015676
2330.000000	8.990135
2329.000000	8.968055
2328.000000	8.929504
2327.000000	8.881046
2326.000000	8.860040
2325.000000	8.813970
2324.000000	8.772555
2323.000000	8.739375
2322.000000	8.694259
2321.000000	8.650099
2320.000000	8.599970
2319.000000	8.544352
2318.000000	8.486824
2317.000000	8.450302
2316.000000	8.406499
2315.000000	8.339423
2314.000000	8.285476
2313.000000	8.260770
2312.000000	8.215893
2311.000000	8.188919
2310.000000	8.174836
2309.000000	8.152517
2308.000000	8.116353
2307.000000	8.118859
2306.000000	8.133539
2305.000000	8.151084
2304.000000	8.168510
2303.000000	8.205867
2302.000000	8.235944
2301.000000	8.266618
2300.000000	8.336081
2299.000000	8.382510
2298.000000	8.401845
2297.000000	8.456031
2296.000000	8.506995
2295.000000	8.564761
2294.000000	8.594003
2293.000000	8.617396
2292.000000	8.617993
2291.000000	8.654037
2290.000000	8.677908
2289.000000	8.685427
2288.000000	8.661557
2287.000000	8.649621
2286.000000	8.642699
2285.000000	8.640789
2284.000000	8.622647
2283.000000	8.610235
2282.000000	8.572161
2281.000000	8.568819
2280.000000	8.553662
2279.000000	8.529075
2278.000000	8.511769
2277.000000	8.500669
2276.000000	8.492195
2275.000000	8.480140
2274.000000	8.477395
2273.000000	8.475724
2272.000000	8.469518
2271.000000	8.469398
2270.000000	8.493030
2269.000000	8.523704
2268.000000	8.566074
2267.000000	8.623960
2266.000000	8.675163
2265.000000	8.757755
2264.000000	8.858489
2263.000000	8.935710
2262.000000	9.034773
2261.000000	9.173580
2260.000000	9.288159
2259.000000	9.422431
2258.000000	9.596209
2257.000000	9.750055
2256.000000	9.883730
2255.000000	10.084243
2254.000000	10.246682
2253.000000	10.386205
2252.000000	10.553061
2251.000000	10.736029
2250.000000	10.862781
2249.000000	10.995024
2248.000000	11.157702
2247.000000	11.289587
2246.000000	11.440807
2245.000000	11.549538
2244.000000	11.652539
2243.000000	11.767834
2242.000000	11.865823
2241.000000	11.982789
2240.000000	12.076003
2239.000000	12.177095
2238.000000	12.268519
2237.000000	12.347173
2236.000000	12.428094
2235.000000	12.496841
2234.000000	12.547328
2233.000000	12.582059
2232.000000	12.647584
2231.000000	12.725163
2230.000000	12.760014
2229.000000	12.806204
2228.000000	12.834610
2227.000000	12.842726
2226.000000	12.858361
2225.000000	12.851797
2224.000000	12.889393
2223.000000	12.911235
2222.000000	12.913980
2221.000000	12.889035
2220.000000	12.909802
2219.000000	12.897151
2218.000000	12.902999
2217.000000	12.879725
2216.000000	12.867193
2215.000000	12.831865
2214.000000	12.840816
2213.000000	12.829239
2212.000000	12.821720
2211.000000	12.789972
2210.000000	12.801072
2209.000000	12.799878
2208.000000	12.759656
2207.000000	12.755956
2206.000000	12.761685
2205.000000	12.729460
2204.000000	12.738889
2203.000000	12.748199
2202.000000	12.705948
2201.000000	12.698906
2200.000000	12.691028
2199.000000	12.688164
2198.000000	12.681361
2197.000000	12.691267
2196.000000	12.696877
2195.000000	12.670858
2194.000000	12.655819
2193.000000	12.649613
2192.000000	12.634933
2191.000000	12.638871
2190.000000	12.636007
2189.000000	12.593756
2188.000000	12.588146
2187.000000	12.571676
2186.000000	12.582179
2185.000000	12.562485
2184.000000	12.528947
2183.000000	12.535154
2182.000000	12.512238
2181.000000	12.481326
2180.000000	12.493738
2179.000000	12.466406
2178.000000	12.454949
2177.000000	12.447310
2176.000000	12.451607
2175.000000	12.454590
2174.000000	12.459126
2173.000000	12.434778
2172.000000	12.443491
2171.000000	12.467361
2170.000000	12.476790
2169.000000	12.445400
2168.000000	12.464019
2167.000000	12.460558
2166.000000	12.473210
2165.000000	12.491112
2164.000000	12.506032
2163.000000	12.513073
2162.000000	12.538018
2161.000000	12.541837
2160.000000	12.555921
2159.000000	12.562247
2158.000000	12.573466
2157.000000	12.609391
2156.000000	12.657371
2155.000000	12.675274
2154.000000	12.695325
2153.000000	12.726238
2152.000000	12.735428
2151.000000	12.747840
2150.000000	12.775769
2149.000000	12.820168
2148.000000	12.839862
2147.000000	12.835804
2146.000000	12.849171
2145.000000	12.878174
2144.000000	12.915054
2143.000000	12.917441
2142.000000	12.921976
2141.000000	12.947040
2140.000000	12.977475
2139.000000	12.985830
2138.000000	13.003972
2137.000000	13.014117
2136.000000	13.019965
2135.000000	13.024262
2134.000000	13.032855
2133.000000	13.035242
2132.000000	13.034645
2131.000000	13.038345
2130.000000	13.029036
2129.000000	13.042523
2128.000000	13.070809
2127.000000	13.041090
2126.000000	13.021039
2125.000000	13.014117
2124.000000	12.987740
2123.000000	12.981175
2122.000000	12.977953
2121.000000	12.958379
2120.000000	12.917918
2119.000000	12.898464
2118.000000	12.891303
2117.000000	12.882948
2116.000000	12.872325
2115.000000	12.835923
2114.000000	12.815275
2113.000000	12.800356
2112.000000	12.782214
2111.000000	12.755240
2110.000000	12.730176
2109.000000	12.705351
2108.000000	12.678735
2107.000000	12.675035
2106.000000	12.665129
2105.000000	12.636007
2104.000000	12.621446
2103.000000	12.600320
2102.000000	12.575495
2101.000000	12.576927
2100.000000	12.554369
2099.000000	12.518802
2098.000000	12.500899
2097.000000	12.494574
2096.000000	12.505793
2095.000000	12.499348
2094.000000	12.490396
2093.000000	12.488009
2092.000000	12.480729
2091.000000	12.488129
2090.000000	12.493738
2089.000000	12.479058
2088.000000	12.471539
2087.000000	12.473329
2086.000000	12.479655
2085.000000	12.466764
2084.000000	12.436449
2083.000000	12.436449
2082.000000	12.450055
2081.000000	12.429288
2080.000000	12.421172
2079.000000	12.425707
2078.000000	12.410430
2077.000000	12.398017
2076.000000	12.413056
2075.000000	12.390259
2074.000000	12.374624
2073.000000	12.368776
2072.000000	12.362211
2071.000000	12.358750
2070.000000	12.351589
2069.000000	12.344905
2068.000000	12.344547
2067.000000	12.323780
2066.000000	12.324138
2065.000000	12.308145
2064.000000	12.305638
2063.000000	12.324257
2062.000000	12.313038
2061.000000	12.307070
2060.000000	12.337625
2059.000000	12.350395
2058.000000	12.362092
2057.000000	12.385605
2056.000000	12.436568
2055.000000	12.483355
2054.000000	12.514148
2053.000000	12.572630
2052.000000	12.634455
2051.000000	12.693296
2050.000000	12.777679
2049.000000	12.868029
2048.000000	12.964943
2047.000000	13.073793
2046.000000	13.185149
2045.000000	13.286719
2044.000000	13.401297
2043.000000	13.518860
2042.000000	13.625919
2041.000000	13.760788
2040.000000	13.897089
2039.000000	14.010236
2038.000000	14.114550
2037.000000	14.226742
2036.000000	14.369488
2035.000000	14.472847
2034.000000	14.569523
2033.000000	14.660709
2032.000000	14.755475
2031.000000	14.830070
2030.000000	14.935340
2029.000000	15.026287
2028.000000	15.128214
2027.000000	15.204122
2026.000000	15.262486
2025.000000	15.350688
2024.000000	15.415258
2023.000000	15.481737
2022.000000	15.561584
2021.000000	15.619351
2020.000000	15.702182
2019.000000	15.766752
2018.000000	15.811032
2017.000000	15.858057
2016.000000	15.915585
2015.000000	15.968816
2014.000000	16.036609
2013.000000	16.079934
2012.000000	16.104043
2011.000000	16.131852
2010.000000	16.147368
2009.000000	16.165510
2008.000000	16.208954
2007.000000	16.203822
2006.000000	16.200241
2005.000000	16.220293
2004.000000	16.225425
2003.000000	16.209551
2002.000000	16.208238
2001.000000	16.158468
2000.000000	16.153216
1999.000000	16.142475
1998.000000	16.105595
1997.000000	16.092346
1996.000000	16.054153
1995.000000	16.012141
1994.000000	15.974903
1993.000000	15.929549
1992.000000	15.883718
1991.000000	15.838483
1990.000000	15.799335
1989.000000	15.729156
1988.000000	15.687859
1987.000000	15.638805
1986.000000	15.566000
1985.000000	15.507040
1984.000000	15.453928
1983.000000	15.388523
1982.000000	15.337081
1981.000000	15.272989
1980.000000	15.220474
1979.000000	15.118427
1978.000000	15.067344
1977.000000	14.989884
1976.000000	14.955749
1975.000000	14.872321
1974.000000	14.829832
1973.000000	14.769797
1972.000000	14.704034
1971.000000	14.640419
1970.000000	14.610103
1969.000000	14.541953
1968.000000	14.478338
1967.000000	14.455899
1966.000000	14.405055
1965.000000	14.327714
1964.000000	14.253238
1963.000000	14.235455
1962.000000	14.173152
1961.000000	14.115505
1960.000000	14.093186
1959.000000	14.015129
1958.000000	13.956646
1957.000000	13.898760
1956.000000	13.882886
1955.000000	13.817720
1954.000000	13.766756
1953.000000	13.692041
1952.000000	13.660412
1951.000000	13.614700
1950.000000	13.586772
1949.000000	13.567675
1948.000000	13.522560
1947.000000	13.484128
1946.000000	13.436626
1945.000000	13.438655
1944.000000	13.420871
1943.000000	13.391391
1942.000000	13.408339
1941.000000	13.396404
1940.000000	13.418604
1939.000000	13.396643
1938.000000	13.404878
1937.000000	13.404401
1936.000000	13.431732
1935.000000	13.478757
1934.000000	13.538314
1933.000000	13.587130
1932.000000	13.613029
1931.000000	13.695383
1930.000000	13.744437
1929.000000	13.818794
1928.000000	13.906041
1927.000000	13.988752
1926.000000	14.105599
1925.000000	14.197739
1924.000000	14.329027
1923.000000	14.443128
1922.000000	14.552575
1921.000000	14.705705
1920.000000	14.846064
1919.000000	14.970549
1918.000000	15.153039
1917.000000	15.350449
1916.000000	15.508353
1915.000000	15.672702
1914.000000	15.870469
1913.000000	16.055586
1912.000000	16.249176
1911.000000	16.450286
1910.000000	16.687917
1909.000000	16.897262
1908.000000	17.128210
1907.000000	17.342329
1906.000000	17.586764
1905.000000	17.820098
1904.000000	18.059878
1903.000000	18.325080
1902.000000	18.571186
1901.000000	18.852023
1900.000000	19.115316
1899.000000	19.387440
1898.000000	19.671261
1897.000000	19.953531
1896.000000	20.237710
1895.000000	20.530244
1894.000000	20.823374
1893.000000	21.112686
1892.000000	21.401520
1891.000000	21.684028
1890.000000	21.947201
1889.000000	22.277450
1888.000000	22.630854
1887.000000	23.008725
1886.000000	23.421925
1885.000000	23.876659
1884.000000	24.407899
1883.000000	24.904646
1882.000000	25.446866
1881.000000	26.061652
1880.000000	26.588953
1879.000000	27.107661
1878.000000	27.596053
1877.000000	28.057829
1876.000000	28.450380
1875.000000	28.824432
1874.000000	29.191084
1873.000000	29.500686
1872.000000	29.767081
1871.000000	30.031806
1870.000000	30.244851
1869.000000	30.455031
1868.000000	30.658050
1867.000000	30.790413
1866.000000	30.889475
1865.000000	30.996893
1864.000000	31.090466
1863.000000	31.175206
1862.000000	31.231541
1861.000000	31.250398
1860.000000	31.253024
1859.000000	31.213996
1858.000000	31.173535
1857.000000	31.162913
1856.000000	31.134507
1855.000000	31.062179
1854.000000	30.977319
1853.000000	30.881837
1852.000000	30.801990
1851.000000	30.761887
1850.000000	30.716652
1849.000000	30.614964
1848.000000	30.436531
1847.000000	30.263828
1846.000000	30.159275
1845.000000	30.138865
1844.000000	30.138149
1843.000000	30.131227
1842.000000	30.079786
1841.000000	29.971413
1840.000000	29.872231
1839.000000	29.787013
1838.000000	29.710985
1837.000000	29.635554
1836.000000	29.547352
1835.000000	29.431342
1834.000000	29.335621
1833.000000	29.281434
1832.000000	29.206958
1831.000000	29.102286
1830.000000	28.970759
1829.000000	28.834697
1828.000000	28.701379
1827.000000	28.592530
1826.000000	28.505999
1825.000000	28.445248
1824.000000	28.414574
1823.000000	28.428181
1822.000000	28.393688
1821.000000	28.294983
1820.000000	28.209168
1819.000000	28.167753
1818.000000	28.167514
1817.000000	28.198665
1816.000000	28.201888
1815.000000	28.178614
1814.000000	28.169543
1813.000000	28.148298
1812.000000	28.120012
1811.000000	28.061051
1810.000000	28.000301
1809.000000	27.978817
1808.000000	27.956737
1807.000000	27.888586
1806.000000	27.796565
1805.000000	27.725192
1804.000000	27.668500
1803.000000	27.621117
1802.000000	27.554995
1801.000000	27.467390
1800.000000	27.390646
1799.000000	27.318677
1798.000000	27.271890
1797.000000	27.236442
1796.000000	27.180705
1795.000000	27.107064
1794.000000	27.050252
1793.000000	26.967063
1792.000000	26.870387
1791.000000	26.809278
1790.000000	26.731818
1789.000000	26.639797
1788.000000	26.564486
1787.000000	26.462797
1786.000000	26.354067
1785.000000	26.245933
1784.000000	26.125029
1783.000000	25.997918
1782.000000	25.875223
1781.000000	25.764583
1780.000000	25.649646
1779.000000	25.528861
1778.000000	25.368689
1777.000000	25.197657
1776.000000	25.031160
1775.000000	24.853801
1774.000000	24.661643
1773.000000	24.462324
1772.000000	24.275775
1771.000000	24.099252
1770.000000	23.899933
1769.000000	23.731288
1768.000000	23.576368
1767.000000	23.417270
1766.000000	23.278701
1765.000000	23.198138
1764.000000	23.157916
1763.000000	23.129630
1762.000000	23.172597
1761.000000	23.249102
1760.000000	23.335513
1759.000000	23.450689
1758.000000	23.524210
1757.000000	23.606803
1756.000000	23.650605
1755.000000	23.697749
1754.000000	23.715414
1753.000000	23.705030
1752.000000	23.685098
1751.000000	23.613367
1750.000000	23.539726
1749.000000	23.445318
1748.000000	23.311762
1747.000000	23.184413
1746.000000	23.009203
1745.000000	22.811674
1744.000000	22.582874
1743.000000	22.281747
1742.000000	21.995300
1741.000000	21.692502
1740.000000	21.352704
1739.000000	21.034510
1738.000000	20.776349
1737.000000	20.540269
1736.000000	20.364940
1735.000000	20.300848
1734.000000	20.247974
1733.000000	20.294761
1732.000000	20.391914
1731.000000	20.525708
1730.000000	20.655564
1729.000000	20.831252
1728.000000	20.984739
1727.000000	21.139421
1726.000000	21.267844
1725.000000	21.357001
1724.000000	21.408920
1723.000000	21.464419
1722.000000	21.489125
1721.000000	21.454751
1720.000000	21.468715
1719.000000	21.497718
1718.000000	21.548682
1717.000000	21.599287
1716.000000	21.631871
1715.000000	21.736901
1714.000000	21.816271
1713.000000	21.863535
1712.000000	21.929059
1711.000000	21.949349
1710.000000	21.945769
1709.000000	21.944217
1708.000000	21.921779
1707.000000	21.883108
1706.000000	21.815555
1705.000000	21.754924
1704.000000	21.655980
1703.000000	21.552382
1702.000000	21.391017
1701.000000	21.232397
1700.000000	21.030690
1699.000000	20.797117
1698.000000	20.622742
1697.000000	20.507805
1696.000000	20.414233
1695.000000	20.434403
1694.000000	20.548385
1693.000000	20.740902
1692.000000	20.947621
1691.000000	21.196710
1690.000000	21.392330
1689.000000	21.524095
1688.000000	21.572194
1687.000000	21.549517
1686.000000	21.555962
1685.000000	21.595707
1684.000000	21.749195
1683.000000	22.020245
1682.000000	22.519021
1681.000000	23.232512
1680.000000	23.955910
1679.000000	24.730868
1678.000000	25.466201
1677.000000	26.160834
1676.000000	26.755092
1675.000000	27.282990
1674.000000	27.727460
1673.000000	28.156534
1672.000000	28.457183
1671.000000	28.742437
1670.000000	28.986752
1669.000000	29.193949
1668.000000	29.399832
1667.000000	29.580891
1666.000000	29.719459
1665.000000	29.843348
1664.000000	29.931191
1663.000000	30.029061
1662.000000	30.104611
1661.000000	30.159155
1660.000000	30.214058
1659.000000	30.241031
1658.000000	30.277434
1657.000000	30.255950
1656.000000	30.270750
1655.000000	30.277911
1654.000000	30.258099
1653.000000	30.230170
1652.000000	30.176223
1651.000000	30.157126
1650.000000	30.108788
1649.000000	30.054960
1648.000000	29.987526
1647.000000	29.904695
1646.000000	29.820193
1645.000000	29.743211
1644.000000	29.664438
1643.000000	29.569313
1642.000000	29.493763
1641.000000	29.409858
1640.000000	29.319150
1639.000000	29.204213
1638.000000	29.113744
1637.000000	29.034851
1636.000000	28.926002
1635.000000	28.812616
1634.000000	28.675838
1633.000000	28.589784
1632.000000	28.486425
1631.000000	28.360866
1630.000000	28.244139
1629.000000	28.134573
1628.000000	28.011997
1627.000000	27.896344
1626.000000	27.757776
1625.000000	27.644987
1624.000000	27.541628
1623.000000	27.418456
1622.000000	27.305906
1621.000000	27.197653
1620.000000	27.081880
1619.000000	26.977208
1618.000000	26.859407
1617.000000	26.759628
1616.000000	26.665339
1615.000000	26.540496
1614.000000	26.425798
1613.000000	26.332344
1612.000000	26.246888
1611.000000	26.133741
1610.000000	26.045778
1609.000000	25.960202
1608.000000	25.854933
1607.000000	25.768044
1606.000000	25.681155
1605.000000	25.607156
1604.000000	25.496994
1603.000000	25.386950
1602.000000	25.296242
1601.000000	25.216634
1600.000000	25.109932
1599.000000	25.022924
1598.000000	24.953819
1597.000000	24.870391
1596.000000	24.793289
1595.000000	24.728600
1594.000000	24.658540
1593.000000	24.599341
1592.000000	24.546468
1591.000000	24.501472
1590.000000	24.435827
1589.000000	24.385103
1588.000000	24.364574
1587.000000	24.319936
1586.000000	24.259066
1585.000000	24.224096
1584.000000	24.189722
1583.000000	24.167522
1582.000000	24.148784
1581.000000	24.126823
1580.000000	24.108204
1579.000000	24.111784
1578.000000	24.117275
1577.000000	24.113813
1576.000000	24.114291
1575.000000	24.120378
1574.000000	24.118468
1573.000000	24.120617
1572.000000	24.135774
1571.000000	24.168119
1570.000000	24.188170
1569.000000	24.215383
1568.000000	24.261930
1567.000000	24.313610
1566.000000	24.348819
1565.000000	24.375435
1564.000000	24.404318
1563.000000	24.430457
1562.000000	24.464472
1561.000000	24.500278
1560.000000	24.526655
1559.000000	24.554584
1558.000000	24.587525
1557.000000	24.601370
1556.000000	24.626195
1555.000000	24.651498
1554.000000	24.668446
1553.000000	24.665820
1552.000000	24.664269
1551.000000	24.677278
1550.000000	24.688259
1549.000000	24.669878
1548.000000	24.665820
1547.000000	24.673101
1546.000000	24.667849
1545.000000	24.678353
1544.000000	24.680023
1543.000000	24.675607
1542.000000	24.687304
1541.000000	24.698046
1540.000000	24.716426
1539.000000	24.714158
1538.000000	24.712726
1537.000000	24.709623
1536.000000	24.700313
1535.000000	24.700910
1534.000000	24.700433
1533.000000	24.695420
1532.000000	24.684201
1531.000000	24.671907
1530.000000	24.663791
1529.000000	24.645769
1528.000000	24.622615
1527.000000	24.615692
1526.000000	24.598505
1525.000000	24.563058
1524.000000	24.548855
1523.000000	24.510900
1522.000000	24.500517
1521.000000	24.473185
1520.000000	24.473304
1519.000000	24.453730
1518.000000	24.433918
1517.000000	24.405870
1516.000000	24.363142
1515.000000	24.317429
1514.000000	24.288427
1513.000000	24.252024
1512.000000	24.210012
1511.000000	24.205835
1510.000000	24.173251
1509.000000	24.139116
1508.000000	24.101639
1507.000000	24.064043
1506.000000	24.038621
1505.000000	24.012841
1504.000000	23.983480
1503.000000	23.961758
1502.000000	23.949465
1501.000000	23.917120
1500.000000	23.910675
1499.000000	23.892533
1498.000000	23.890027
1497.000000	23.877853
1496.000000	23.878688
1495.000000	23.870214
1494.000000	23.892056
1493.000000	23.900888
1492.000000	23.929891
1491.000000	23.951374
1490.000000	23.975722
1489.000000	23.991119
1488.000000	24.002696
1487.000000	24.016422
1486.000000	24.043634
1485.000000	24.070011
1484.000000	24.108323
1483.000000	24.159048
1482.000000	24.178383
1481.000000	24.208341
1480.000000	24.234718
1479.000000	24.286040
1478.000000	24.343329
1477.000000	24.386654
1476.000000	24.426279
1475.000000	24.496578
1474.000000	24.554584
1473.000000	24.615215
1472.000000	24.656750
1471.000000	24.705565
1470.000000	24.729436
1469.000000	24.765838
1468.000000	24.839956
1467.000000	24.919326
1466.000000	24.924458
1465.000000	24.984970
1464.000000	25.081407
1463.000000	25.180351
1462.000000	25.262585
1461.000000	25.355799
1460.000000	25.439108
1459.000000	25.556790
1458.000000	25.656688
1457.000000	25.787499
1456.000000	25.908403
1455.000000	26.011166
1454.000000	26.150331
1453.000000	26.295226
1452.000000	26.436659
1451.000000	26.581673
1450.000000	26.661758
1449.000000	26.830523
1448.000000	27.023756
1447.000000	27.201472
1446.000000	27.362837
1445.000000	27.469539
1444.000000	27.634126
1443.000000	27.802772
1442.000000	27.977146
1441.000000	28.160711
1440.000000	28.312766
1439.000000	28.507312
1438.000000	28.678941
1437.000000	28.809632
1436.000000	28.989378
1435.000000	29.161604
1434.000000	29.323447
1433.000000	29.529569
1432.000000	29.682341
1431.000000	29.831412
1430.000000	30.047202
1429.000000	30.273734
1428.000000	30.518049
1427.000000	30.776806
1426.000000	31.053705
1425.000000	31.305659
1424.000000	31.608576
1423.000000	31.875330
1422.000000	32.156048
1421.000000	32.517329
1420.000000	32.817382
1419.000000	33.105500
1418.000000	33.347190
1417.000000	33.623253
1416.000000	33.951354
1415.000000	34.278023
1414.000000	34.495125
1413.000000	34.736815
1412.000000	35.003569
1411.000000	35.404475
1410.000000	35.817913
1409.000000	36.191249
1408.000000	36.599078
1407.000000	37.056557
1406.000000	37.516424
1405.000000	37.974858
1404.000000	38.369558
1403.000000	38.846492
1402.000000	39.346342
1401.000000	39.796063
1400.000000	40.121539
1399.000000	40.356664
1398.000000	40.621866
1397.000000	40.987444
1396.000000	41.242859
1395.000000	41.337983
1394.000000	41.462945
1393.000000	41.658565
1392.000000	41.871252
1391.000000	42.104228
1390.000000	42.370505
1389.000000	42.719731
1388.000000	43.063348
1387.000000	43.404936
1386.000000	43.836277
1385.000000	44.365368
1384.000000	44.856983
1383.000000	45.284385
1382.000000	45.598641
1381.000000	45.831141
1380.000000	45.942855
1379.000000	46.104340
1378.000000	46.204596
1377.000000	46.381238
1376.000000	46.588554
1375.000000	46.802912
1374.000000	47.147125
1373.000000	47.577273
1372.000000	48.018521
1371.000000	48.451175
1370.000000	48.819736
1369.000000	49.198562
1368.000000	49.530841
1367.000000	49.812872
1366.000000	50.051697
1365.000000	50.285270
1364.000000	50.491989
1363.000000	50.704438
1362.000000	50.882512
1361.000000	50.994704
1360.000000	51.014755
1359.000000	51.118592
1358.000000	51.309795
1357.000000	51.581800
1356.000000	51.973517
1355.000000	52.485421
1354.000000	53.019286
1353.000000	53.573561
1352.000000	54.249456
1351.000000	54.855411
1350.000000	55.389515
1349.000000	55.866329
1348.000000	56.325480
1347.000000	56.707170
1346.000000	57.046849
1345.000000	57.422571
1344.000000	57.765592
1343.000000	58.063019
1342.000000	58.360327
1341.000000	58.651787
1340.000000	58.929401
1339.000000	59.193171
1338.000000	59.431519
1337.000000	59.656976
1336.000000	59.873244
1335.000000	60.074831
1334.000000	60.281311
1333.000000	60.483137
1332.000000	60.667776
1331.000000	60.842031
1330.000000	60.993728
1329.000000	61.135281
1328.000000	61.276237
1327.000000	61.409673
1326.000000	61.537977
1325.000000	61.656495
1324.000000	61.777399
1323.000000	61.872524
1322.000000	61.969796
1321.000000	62.065994
1320.000000	62.162670
1319.000000	62.256720
1318.000000	62.341700
1317.000000	62.426201
1316.000000	62.502945
1315.000000	62.572289
1314.000000	62.631130
1313.000000	62.699400
1312.000000	62.773280
1311.000000	62.830092
1310.000000	62.868284
1309.000000	62.907552
1308.000000	62.941328
1307.000000	62.964005
1306.000000	62.993486
1305.000000	63.019505
1304.000000	63.041823
1303.000000	63.046001
1302.000000	63.046478
1301.000000	63.044211
1300.000000	63.043733
1299.000000	63.058294
1298.000000	63.056265
1297.000000	63.041346
1296.000000	63.017356
1295.000000	62.994679
1294.000000	62.980237
1293.000000	62.946222
1292.000000	62.916503
1291.000000	62.896571
1290.000000	62.861243
1289.000000	62.809563
1288.000000	62.753348
1287.000000	62.696178
1286.000000	62.629101
1285.000000	62.581838
1284.000000	62.520968
1283.000000	62.449117
1282.000000	62.371896
1281.000000	62.304462
1280.000000	62.245024
1279.000000	62.194060
1278.000000	62.154912
1277.000000	62.133071
1276.000000	62.121852
1275.000000	62.111110
1274.000000	62.074946
1273.000000	62.039856
1272.000000	62.018611
1271.000000	61.995934
1270.000000	61.967290
1269.000000	61.924323
1268.000000	61.875149
1267.000000	61.845192
1266.000000	61.813683
1265.000000	61.781815
1264.000000	61.751619
1263.000000	61.699939
1262.000000	61.663417
1261.000000	61.646827
1260.000000	61.602905
1259.000000	61.562564
1258.000000	61.524013
1257.000000	61.490356
1256.000000	61.420057
1255.000000	61.370525
1254.000000	61.325410
1253.000000	61.256424
1252.000000	61.190780
1251.000000	61.123346
1250.000000	61.049466
1249.000000	60.939900
1248.000000	60.850266
1247.000000	60.740581
1246.000000	60.635192
1245.000000	60.518585
1244.000000	60.391832
1243.000000	60.266153
1242.000000	60.126033
1241.000000	60.001071
1240.000000	59.848060
1239.000000	59.690156
1238.000000	59.515663
1237.000000	59.341765
1236.000000	59.183623
1235.000000	59.026555
1234.000000	58.834158
1233.000000	58.684967
1232.000000	58.518469
1231.000000	58.312108
1230.000000	58.137734
1229.000000	57.947485
1228.000000	57.768695
1227.000000	57.587040
1226.000000	57.386885
1225.000000	57.201291
1224.000000	57.004717
1223.000000	56.800862
1222.000000	56.621594
1221.000000	56.456410
1220.000000	56.275113
1219.000000	56.108138
1218.000000	55.954889
1217.000000	55.825153
1216.000000	55.657462
1215.000000	55.520803
1214.000000	55.370180
1213.000000	55.238175
1212.000000	55.103784
1211.000000	54.977986
1210.000000	54.868301
1209.000000	54.769715
1208.000000	54.693449
1207.000000	54.587225
1206.000000	54.528503
1205.000000	54.473004
1204.000000	54.446508
1203.000000	54.408434
1202.000000	54.378477
1201.000000	54.341835
1200.000000	54.271775
1199.000000	54.179754
1198.000000	54.024476
1197.000000	53.860366
1196.000000	53.618796
1195.000000	53.315401
1194.000000	52.915927
1193.000000	52.463341
1192.000000	51.923746
1191.000000	51.394655
1190.000000	50.875709
1189.000000	50.458093
1188.000000	50.150163
1187.000000	49.962898
1186.000000	49.953469
1185.000000	50.101586
1184.000000	50.404026
1183.000000	50.835845
1182.000000	51.387733
1181.000000	52.000252
1180.000000	52.535072
1179.000000	53.051870
1178.000000	53.483927
1177.000000	53.872421
1176.000000	54.213173
1175.000000	54.533158
1174.000000	54.849443
1173.000000	55.181960
1172.000000	55.531425
1171.000000	55.887694
1170.000000	56.237756
1169.000000	56.622310
1168.000000	56.958289
1167.000000	57.342486
1166.000000	57.738618
1165.000000	58.123173
1164.000000	58.473831
1163.000000	58.840841
1162.000000	59.205823
1161.000000	59.594913
1160.000000	59.893056
1159.000000	60.227722
1158.000000	60.535652
1157.000000	60.826276
1156.000000	61.040157
1155.000000	61.199612
1154.000000	61.345103
1153.000000	61.428650
1152.000000	61.412776
1151.000000	61.410867
1150.000000	61.421728
1149.000000	61.422921
1148.000000	61.480211
1147.000000	61.543468
1146.000000	61.654943
1145.000000	61.865124
1144.000000	62.086881
1143.000000	62.371777
1142.000000	62.668846
1141.000000	62.985489
1140.000000	63.291510
1139.000000	63.596456
1138.000000	63.902477
1137.000000	64.240604
1136.000000	64.599856
1135.000000	64.912918
1134.000000	65.169050
1133.000000	65.374814
1132.000000	65.627245
1131.000000	65.847690
1130.000000	66.013829
1129.000000	66.181162
1128.000000	66.282850
1127.000000	66.375230
1126.000000	66.471667
1125.000000	66.523943
1124.000000	66.598419
1123.000000	66.639119
1122.000000	66.661199
1121.000000	66.676954
1120.000000	66.709298
1119.000000	66.726246
1118.000000	66.720756
1117.000000	66.725530
1116.000000	66.711327
1115.000000	66.689724
1114.000000	66.665854
1113.000000	66.674089
1112.000000	66.671583
1111.000000	66.631361
1110.000000	66.623245
1109.000000	66.599255
1108.000000	66.585052
1107.000000	66.573117
1106.000000	66.550320
1105.000000	66.531821
1104.000000	66.506279
1103.000000	66.488137
1102.000000	66.451973
1101.000000	66.412110
1100.000000	66.404113
1099.000000	66.343124
1098.000000	66.292876
1097.000000	66.255399
1096.000000	66.231171
1095.000000	66.187965
1094.000000	66.144162
1093.000000	66.095108
1092.000000	66.020871
1091.000000	65.988407
1090.000000	65.937921
1089.000000	65.870964
1088.000000	65.790042
1087.000000	65.758056
1086.000000	65.706854
1085.000000	65.644909
1084.000000	65.572224
1083.000000	65.493570
1082.000000	65.452751
1081.000000	65.399878
1080.000000	65.341634
1079.000000	65.284941
1078.000000	65.217507
1077.000000	65.173227
1076.000000	65.112118
1075.000000	65.049339
1074.000000	64.985724
1073.000000	64.919721
1072.000000	64.864222
1071.000000	64.801204
1070.000000	64.751553
1069.000000	64.688296
1068.000000	64.627426
1067.000000	64.559634
1066.000000	64.494587
1065.000000	64.447442
1064.000000	64.401372
1063.000000	64.334057
1062.000000	64.286435
1061.000000	64.222343
1060.000000	64.139870
1059.000000	64.068139
1058.000000	64.018369
1057.000000	63.954395
1056.000000	63.866194
1055.000000	63.790285
1054.000000	63.736338
1053.000000	63.678213
1052.000000	63.612569
1051.000000	63.540838
1050.000000	63.494648
1049.000000	63.437956
1048.000000	63.376966
1047.000000	63.317648
1046.000000	63.279932
1045.000000	63.221450
1044.000000	63.169054
1043.000000	63.120477
1042.000000	63.094816
1041.000000	63.070229
1040.000000	63.019863
1039.000000	62.972002
1038.000000	62.900390
1037.000000	62.846323
1036.000000	62.779486
1035.000000	62.718855
1034.000000	62.664907
1033.000000	62.620627
1032.000000	62.555341
1031.000000	62.463678
1030.000000	62.394692
1029.000000	62.310668
1028.000000	62.224018
1027.000000	62.145364
1026.000000	62.068620
1025.000000	61.983044
1024.000000	61.889591
1023.000000	61.808550
1022.000000	61.741355
1021.000000	61.662104
1020.000000	61.578915
1019.000000	61.500381
1018.000000	61.404780
1017.000000	61.325768
1016.000000	61.262750
1015.000000	61.207847
1014.000000	61.137787
1013.000000	61.082766
1012.000000	61.049824
1011.000000	60.982509
1010.000000	60.942765
1009.000000	60.887624
1008.000000	60.832483
1007.000000	60.801451
1006.000000	60.756097
1005.000000	60.712891
1004.000000	60.655721
1003.000000	60.597716
1002.000000	60.564894
1001.000000	60.511662
1000.000000	60.437305
999.000000	60.383955
998.000000	60.339078
997.000000	60.272837
996.000000	60.211848
995.000000	60.168045
994.000000	60.121617
993.000000	60.086408
992.000000	60.031267
991.000000	59.953091
990.000000	59.912988
989.000000	59.874079
988.000000	59.804855
987.000000	59.780865
986.000000	59.732885
985.000000	59.691111
984.000000	59.661870
983.000000	59.595152
982.000000	59.543710
981.000000	59.498356
980.000000	59.453241
979.000000	59.412184
978.000000	59.361101
977.000000	59.311450
976.000000	59.275405
975.000000	59.258338
974.000000	59.186010
973.000000	59.133256
972.000000	59.075012
971.000000	59.023451
970.000000	58.986333
969.000000	58.940501
968.000000	58.871038
967.000000	58.801574
966.000000	58.784626
965.000000	58.735572
964.000000	58.672912
963.000000	58.653338
962.000000	58.651787
961.000000	58.581607
960.000000	58.540669
959.000000	58.483141
958.000000	58.464880
957.000000	58.422271
956.000000	58.380020
955.000000	58.366294
954.000000	58.297547
953.000000	58.222355
952.000000	58.198962
951.000000	58.120547
950.000000	58.090112
949.000000	58.007878
948.000000	57.918841
947.000000	57.867519
946.000000	57.840784
945.000000	57.833623
944.000000	57.772991
943.000000	57.680254
942.000000	57.609239
941.000000	57.525573
940.000000	57.493228
939.000000	57.398462
938.000000	57.327328
937.000000	57.241155
936.000000	57.263713
935.000000	57.182792
934.000000	57.124667
933.000000	57.073942
932.000000	57.002091
931.000000	57.005314
930.000000	56.976669
929.000000	56.899567
928.000000	56.818765
927.000000	56.745483
926.000000	56.670410
925.000000	56.620281
924.000000	56.602259
923.000000	56.531125
922.000000	56.456410
921.000000	56.400792
920.000000	56.309367
919.000000	56.266639
918.000000	56.200756
917.000000	56.191805
916.000000	56.115300
915.000000	56.052759
914.000000	55.925409
913.000000	55.842101
912.000000	55.855826
911.000000	55.782305
910.000000	55.755570
909.000000	55.703771
908.000000	55.668204
907.000000	55.637888
906.000000	55.631324
905.000000	55.625237
904.000000	55.606498
903.000000	55.618434
902.000000	55.616285
901.000000	55.642543
900.000000	55.616285
899.000000	55.632637
898.000000	55.597905
897.000000	55.611750
896.000000	55.600173
895.000000	55.551119
894.000000	55.538348
893.000000	55.503616
892.000000	55.495381
891.000000	55.519490
890.000000	55.497887
889.000000	55.495023
888.000000	55.475568
887.000000	55.411237
886.000000	55.324587
885.000000	55.294749
884.000000	55.234117
883.000000	55.195924
882.000000	55.099487
881.000000	55.048762
880.000000	55.043153
879.000000	54.988967
878.000000	54.867346
877.000000	54.789528
876.000000	54.761003
875.000000	54.613005
874.000000	54.565861
873.000000	54.431827
872.000000	54.393873
871.000000	54.323813
870.000000	54.188348
869.000000	54.129626
868.000000	53.978525
867.000000	53.910852
866.000000	53.771209
865.000000	53.677875
864.000000	53.513646
863.000000	53.389877
862.000000	53.118827
861.000000	52.898143
860.000000	52.695959
859.000000	52.435173
858.000000	54.203267
857.000000	54.269100
856.000000	54.110700
855.000000	54.230000
854.000000	54.638300
853.000000	54.443100
852.000000	54.797300
851.000000	54.883100
850.000000	55.059800
849.000000	55.326800
848.000000	55.336000
847.000000	55.397500
846.000000	55.866200
845.000000	55.868200
844.000000	56.087500
843.000000	56.193700
842.000000	56.276700
841.000000	56.255500
840.000000	56.454000
839.000000	56.627300
838.000000	56.664100
837.000000	56.735200
836.000000	57.030800
835.000000	57.114000
834.000000	57.203800
833.000000	57.301600
832.000000	57.351600
831.000000	57.398300
830.000000	57.531400
829.000000	57.677500
828.000000	57.700300
827.000000	57.841900
826.000000	57.963800
825.000000	58.097600
824.000000	58.065800
823.000000	58.094000
822.000000	58.141500
821.000000	58.070200
820.000000	58.149000
819.000000	58.356000
818.000000	58.426400
817.000000	58.435800
816.000000	58.494200
815.000000	58.539700
814.000000	58.578300
813.000000	58.592500
812.000000	58.557700
811.000000	58.608200
810.000000	58.585900
809.000000	58.582200
808.000000	58.638300
807.000000	58.710000
806.000000	58.762300
805.000000	58.772400
804.000000	58.847100
803.000000	58.802600
802.000000	58.758400
801.000000	58.766200
800.000000	58.756900
799.000000	58.691800
798.000000	58.691100
797.000000	58.635400
796.000000	58.657400
795.000000	58.782100
794.000000	58.711700
793.000000	58.627200
792.000000	58.576600
791.000000	58.451800
790.000000	58.419400
789.000000	58.387600
788.000000	58.335000
787.000000	58.377100
786.000000	58.234600
785.000000	58.136900
784.000000	58.148700
783.000000	58.066300
782.000000	57.939300
781.000000	57.890200
780.000000	57.849700
779.000000	57.805100
778.000000	57.821800
777.000000	57.676000
776.000000	57.571200
775.000000	57.587700
774.000000	57.495800
773.000000	57.403400
772.000000	57.320300
771.000000	57.184200
770.000000	57.116800
769.000000	57.105400
768.000000	57.046400
767.000000	56.998700
766.000000	56.992200
765.000000	56.881900
764.000000	56.766700
763.000000	56.751800
762.000000	56.733100
761.000000	56.687800
760.000000	56.640300
759.000000	56.690800
758.000000	56.597200
757.000000	56.454500
756.000000	56.445200
755.000000	56.389700
754.000000	56.311400
753.000000	56.287600
752.000000	56.237300
751.000000	56.175600
750.000000	56.064800
749.000000	56.006900
748.000000	56.009400
747.000000	55.915400
746.000000	55.867000
745.000000	55.824600
744.000000	55.744000
743.000000	55.640500
742.000000	55.621200
741.000000	55.591900
740.000000	55.473500
739.000000	55.403000
738.000000	55.386200
737.000000	55.354100
736.000000	55.238300
735.000000	55.142600
734.000000	55.148800
733.000000	55.085000
732.000000	54.969000
731.000000	54.868000
730.000000	54.791300
729.000000	54.714500
728.000000	54.623200
727.000000	54.600200
726.000000	54.590100
725.000000	54.488900
724.000000	54.392100
723.000000	54.313000
722.000000	54.241100
721.000000	54.180200
720.000000	54.160400
719.000000	54.133100
718.000000	54.055700
717.000000	54.033600
716.000000	53.990100
715.000000	53.944200
714.000000	53.884600
713.000000	53.838000
712.000000	53.772500
711.000000	53.667200
710.000000	53.626400
709.000000	53.571000
708.000000	53.471900
707.000000	53.409500
706.000000	53.318500
705.000000	53.279800
704.000000	53.188600
703.000000	53.114300
702.000000	53.062800
701.000000	52.950700
700.000000	52.850600
699.000000	52.801000
698.000000	52.694200
697.000000	52.620600
696.000000	52.537300
695.000000	52.485800
694.000000	52.404800
693.000000	52.323500
692.000000	52.258200
691.000000	52.152000
690.000000	52.033700
689.000000	51.944000
688.000000	51.855200
687.000000	51.802600
686.000000	51.734500
685.000000	51.645400
684.000000	51.514700
683.000000	51.443000
682.000000	51.384700
681.000000	51.337200
680.000000	51.246200
679.000000	51.164000
678.000000	51.110900
677.000000	51.056300
676.000000	50.980300
675.000000	50.923200
674.000000	50.875700
673.000000	50.829800
672.000000	50.727700
671.000000	50.629100
670.000000	50.585900
669.000000	50.521500
668.000000	50.407200
667.000000	50.327100
666.000000	50.231100
665.000000	50.141600
664.000000	50.046900
663.000000	49.957900
662.000000	49.846100
661.000000	49.733000
660.000000	49.543300
659.000000	49.414200
658.000000	49.280100
657.000000	49.144300
656.000000	48.979700
655.000000	48.810300
654.000000	48.617000
653.000000	48.496600
652.000000	48.300400
651.000000	48.077000
650.000000	47.845800
649.000000	47.631700
648.000000	47.421700
647.000000	47.224800
646.000000	47.002500
645.000000	46.755100
644.000000	46.518600
643.000000	46.275300
642.000000	46.024700
641.000000	45.785500
640.000000	45.470100
639.000000	45.225400
638.000000	45.013200
637.000000	44.736100
636.000000	44.503900
635.000000	44.296700
634.000000	44.106500
633.000000	43.932100
632.000000	43.777900
631.000000	43.660800
630.000000	43.500900
629.000000	43.411800
628.000000	43.330500
627.000000	43.279800
626.000000	43.291300
625.000000	43.286900
624.000000	43.302900
623.000000	43.325700
622.000000	43.406100
621.000000	43.532300
620.000000	43.671200
619.000000	43.755900
618.000000	43.886500
617.000000	44.000200
616.000000	44.184900
615.000000	44.341200
614.000000	44.540500
613.000000	44.769600
612.000000	44.994700
611.000000	45.233200
610.000000	45.527200
609.000000	45.805900
608.000000	46.099000
607.000000	46.447500
606.000000	46.755000
605.000000	47.074300
604.000000	47.413300
603.000000	47.765200
602.000000	48.110500
601.000000	48.437400
600.000000	48.782100
599.000000	49.089700
598.000000	49.411400
597.000000	49.702600
596.000000	49.970500
595.000000	50.264200
594.000000	50.527400
593.000000	50.802500
592.000000	51.062000
591.000000	51.310200
590.000000	51.612400
589.000000	51.877600
588.000000	52.148400
587.000000	52.404300
586.000000	52.694300
585.000000	52.961500
584.000000	53.246200
583.000000	53.549200
582.000000	53.875000
581.000000	54.145600
580.000000	54.432600
579.000000	54.752900
578.000000	54.996600
577.000000	55.292700
576.000000	55.554700
575.000000	55.827700
574.000000	56.052700
573.000000	56.308000
572.000000	56.522800
571.000000	56.729000
570.000000	56.944300
569.000000	57.162300
568.000000	57.364400
567.000000	57.526500
566.000000	57.690400
565.000000	57.877300
564.000000	58.015600
563.000000	58.173900
562.000000	58.280400
561.000000	58.422200
560.000000	58.555900
559.000000	58.771800
558.000000	58.860000
557.000000	58.953600
556.000000	59.079900
555.000000	59.152900
554.000000	59.219400
553.000000	59.284700
552.000000	59.298200
551.000000	59.309700
550.000000	59.329800
549.000000	59.316900
548.000000	59.242200
547.000000	59.157200
546.000000	59.095700
545.000000	58.970200
544.000000	58.782400
543.000000	58.586600
542.000000	58.361800
541.000000	58.118000
540.000000	57.839900
539.000000	57.499200
538.000000	57.185500
537.000000	56.813300
536.000000	56.403600
535.000000	55.971600
534.000000	55.485700
533.000000	54.958800
532.000000	54.429300
531.000000	53.867600
530.000000	53.232400
529.000000	52.569500
528.000000	51.929800
527.000000	51.256100
526.000000	50.568400
525.000000	49.836000
524.000000	49.072500
523.000000	48.326700
522.000000	47.571000
521.000000	46.797700
520.000000	46.033800
519.000000	45.256000
518.000000	44.481700
517.000000	43.709400
516.000000	42.933600
515.000000	42.152000
514.000000	41.386100
513.000000	40.612900
512.000000	39.855300
511.000000	39.089200
510.000000	38.336800
509.000000	37.598500
508.000000	36.916300
507.000000	36.234200
506.000000	35.562000
505.000000	34.909000
504.000000	34.278600
503.000000	33.642700
502.000000	33.042300
501.000000	32.457200
500.000000	31.879700
499.000000	31.324100
498.000000	30.806800
497.000000	30.287500
496.000000	29.781000
495.000000	29.273700
494.000000	28.781300
493.000000	28.306300
492.000000	27.844800
491.000000	27.385800
490.000000	26.945200
489.000000	26.488000
488.000000	26.050400
487.000000	25.642400
486.000000	25.213600
485.000000	24.787200
484.000000	24.378300
483.000000	23.951500
482.000000	23.520300
481.000000	23.083500
480.000000	22.651300
479.000000	22.235500
478.000000	21.842800
477.000000	21.445800
476.000000	21.080500
475.000000	20.717100
474.000000	20.374800
473.000000	20.039700
472.000000	19.717500
471.000000	19.411700
470.000000	19.119500
469.000000	18.847900
468.000000	18.591900
467.000000	18.352000
466.000000	18.127700
465.000000	17.915300
464.000000	17.706200
463.000000	17.511700
462.000000	17.341200
461.000000	17.180100
460.000000	17.041000
459.000000	16.907200
458.000000	16.789000
457.000000	16.691400
456.000000	16.597100
455.000000	16.501100
454.000000	16.415300
453.000000	16.352200
452.000000	16.281100
451.000000	16.216100
450.000000	16.138900
449.000000	16.057000
448.000000	16.000700
447.000000	15.933700
446.000000	15.855200
445.000000	15.781700
444.000000	15.694000
443.000000	15.590800
442.000000	15.501300
441.000000	15.402900
440.000000	15.294000
439.000000	15.178800
438.000000	15.057100
437.000000	14.948200
436.000000	14.842900
435.000000	14.733100
434.000000	14.615800
433.000000	14.505100
432.000000	14.392200
431.000000	14.276600
430.000000	14.152900
429.000000	14.022700
428.000000	13.910100
427.000000	13.788700
426.000000	13.659700
425.000000	13.536100
424.000000	13.392600
423.000000	13.246000
422.000000	13.093400
421.000000	12.941300
420.000000	12.793000
419.000000	12.634200
418.000000	12.473400
417.000000	12.317400
416.000000	12.149100
415.000000	11.980300
414.000000	11.810300
413.000000	11.628000
412.000000	11.426400
411.000000	11.233700
410.000000	11.047600
409.000000	10.859500
408.000000	10.659300
407.000000	10.449800
406.000000	10.245200
405.000000	10.053800
404.000000	9.862900
403.000000	9.653100
402.000000	9.469200
401.000000	9.259400
400.000000	9.064600
399.000000	8.877700
398.000000	8.678000
397.000000	8.485900
396.000000	8.305400
395.000000	8.136000
394.000000	7.967700
393.000000	7.801900
392.000000	7.632300
391.000000	7.471700
390.000000	7.323000
389.000000	7.179000
388.000000	7.025800
387.000000	6.902100
386.000000	6.791900
385.000000	6.667900
384.000000	6.552400
383.000000	6.451000
382.000000	6.346400
381.000000	6.258900
380.000000	6.179800
379.000000	6.085400
378.000000	5.986200
377.000000	5.935300
376.000000	5.815700
375.000000	5.641400
374.000000	5.577400
373.000000	5.502400
372.000000	5.468700
371.000000	5.462300
370.000000	5.406700
369.000000	5.325400
368.000000	5.423200
367.000000	5.510500
366.000000	5.409700
365.000000	5.349400
364.000000	5.278000
363.000000	5.255500
362.000000	5.289000
361.000000	5.280300
360.000000	5.223000
359.000000	5.249500
358.000000	5.264900
357.000000	5.236300
356.000000	5.260700
355.000000	5.245700
354.000000	5.323300
353.000000	5.248100
352.000000	5.216500
351.000000	5.122800
350.000000	5.223600
349.000000	5.127200
348.000000	5.219900
347.000000	5.176100
346.000000	5.085000
345.000000	5.114000
344.000000	5.150100
343.000000	5.171700
342.000000	5.176400
341.000000	5.168700
340.000000	5.152500
339.000000	5.187000
338.000000	5.000400
337.000000	5.097600
336.000000	5.241300
335.000000	5.133900
334.000000	5.139000
333.000000	5.243200
332.000000	5.189500
331.000000	5.245300
330.000000	5.415800
329.000000	5.287900
328.000000	5.196300
327.000000	5.307800
326.000000	5.384000
325.000000	5.228200
324.000000	5.142600
323.000000	5.380100
322.000000	5.312900
321.000000	5.456400
320.000000	5.506600
319.000000	5.311600
318.000000	5.166900
317.000000	5.640400
316.000000	5.217100
315.000000	5.114900
314.000000	5.132700
313.000000	5.128300
312.000000	5.101900
311.000000	5.154000
310.000000	5.122700
309.000000	5.172800
308.000000	5.229600
307.000000	5.140600
306.000000	5.089500
305.000000	5.175500
304.000000	5.178600
303.000000	5.094500
302.000000	5.141400
301.000000	5.151100
300.000000	5.179800
299.000000	5.135600
298.000000	5.168400
297.000000	5.127200
296.000000	5.124500
295.000000	5.200700
294.000000	5.223300
293.000000	5.186300
292.000000	5.256200
291.000000	5.266900
290.000000	5.207900
289.000000	5.189000
288.000000	5.246500
287.000000	5.275200
286.000000	5.202900
285.000000	5.250500
284.000000	5.249900
283.000000	5.243800
282.000000	5.225000
281.000000	5.267400
280.000000	5.242600
279.000000	5.285000
278.000000	5.298400
277.000000	5.325700
276.000000	5.273800
275.000000	5.333600
274.000000	5.302000
273.000000	5.335300
272.000000	5.340400
271.000000	5.417200
270.000000	5.404500
269.000000	5.438700
268.000000	5.400300
267.000000	5.399600
266.000000	5.433100
265.000000	5.432600
264.000000	5.442000
263.000000	5.539100
262.000000	5.538800
261.000000	5.594100
260.000000	5.594700
259.000000	5.594000
258.000000	5.626000
257.000000	5.617800
256.000000	5.628500
255.000000	5.611700
254.000000	5.709200
253.000000	5.665200
252.000000	5.663600
251.000000	5.714300
250.000000	5.679500
