PE UV       SUBTECH     SPECTRUM    ASCII       PEDS        4.00        
   -1
CICIMAUCR0018-4.Sample.ASC
24/04/25
09:33:39.00
24/04/25
09:33:39.00
Vinicio Soto Monge
C. cupreomarginata
250,000000
1
Lambda 1050
1050L1511233
PerkinElmer UV WinLab 6.3.2.0749 / 2.02.05 Lambda 900 UV/VIS/NIR, Aug  7 2015 09:38:08

0
0
3350/servo 860,8/2
0
0
UV/VIS
1
1
1
DoubleDePol,CommonBeamDepol,RBeamAtt,SBeamAtt,60mm sphere, WB InGaAs Detector
0
0
0
0
Program
Program
3350/servo 860,8/2
3350/0,2 860,8/0,2
3350/0,2 860,8/0,2
0
15.00
 
 
 
0
 
860,8
319,2
860,8
Front
100
on
S:100 R:100
0
0
0
0
 
0
 
 
 
0
 
 
0
0
0
0
0
 
 
 
 
0
0


0
0
#HDR
-1
-1
#GR
nm
%R
1.0
0.0
2500,000000
-1,000000
2251
8
71,686800
5,649200
#DATA
2482.000000	6.987120
2481.000000	6.934871
2480.000000	6.935649
2479.000000	6.885623
2478.000000	6.970556
2477.000000	6.882844
2476.000000	6.902299
2475.000000	6.953102
2474.000000	6.917195
2473.000000	6.904300
2472.000000	6.935871
2471.000000	6.907079
2470.000000	6.917862
2469.000000	6.898963
2468.000000	6.966554
2467.000000	6.907968
2466.000000	6.932870
2465.000000	6.977114
2464.000000	6.948100
2463.000000	7.017024
2462.000000	6.996902
2461.000000	7.019358
2460.000000	7.053487
2459.000000	7.098843
2458.000000	7.134862
2457.000000	7.160430
2456.000000	7.189111
2455.000000	7.236135
2454.000000	7.285939
2453.000000	7.259925
2452.000000	7.329516
2451.000000	7.357086
2450.000000	7.396884
2449.000000	7.427789
2448.000000	7.509052
2447.000000	7.526506
2446.000000	7.544070
2445.000000	7.621554
2444.000000	7.670023
2443.000000	7.699372
2442.000000	7.753844
2441.000000	7.781747
2440.000000	7.813986
2439.000000	7.870014
2438.000000	7.900919
2437.000000	7.939717
2436.000000	7.974290
2435.000000	8.008085
2434.000000	8.031208
2433.000000	8.045104
2432.000000	8.109692
2431.000000	8.121031
2430.000000	8.152825
2429.000000	8.177838
2428.000000	8.222528
2427.000000	8.226085
2426.000000	8.239203
2425.000000	8.276333
2424.000000	8.298455
2423.000000	8.326358
2422.000000	8.344701
2421.000000	8.360931
2420.000000	8.383832
2419.000000	8.387612
2418.000000	8.408289
2417.000000	8.420851
2416.000000	8.436303
2415.000000	8.452311
2414.000000	8.481215
2413.000000	8.514788
2412.000000	8.559811
2411.000000	8.594050
2410.000000	8.630625
2409.000000	8.662085
2408.000000	8.672312
2407.000000	8.682318
2406.000000	8.694546
2405.000000	8.737457
2404.000000	8.761803
2403.000000	8.773364
2402.000000	8.791707
2401.000000	8.811717
2400.000000	8.832394
2399.000000	8.860408
2398.000000	8.885421
2397.000000	8.890535
2396.000000	8.920773
2395.000000	8.952455
2394.000000	8.961460
2393.000000	8.967908
2392.000000	8.975134
2391.000000	8.989363
2390.000000	9.009040
2389.000000	9.019712
2388.000000	9.027160
2387.000000	9.057954
2386.000000	9.061622
2385.000000	9.060066
2384.000000	9.063401
2383.000000	9.058621
2382.000000	9.058732
2381.000000	9.052062
2380.000000	9.048282
2379.000000	9.048504
2378.000000	9.048616
2377.000000	9.037054
2376.000000	9.023714
2375.000000	9.010930
2374.000000	9.008373
2373.000000	9.002926
2372.000000	8.983138
2371.000000	8.952900
2370.000000	8.933557
2369.000000	8.920550
2368.000000	8.904320
2367.000000	8.877306
2366.000000	8.854517
2365.000000	8.825835
2364.000000	8.795598
2363.000000	8.757134
2362.000000	8.729897
2361.000000	8.697992
2360.000000	8.652413
2359.000000	8.628290
2358.000000	8.605723
2357.000000	8.594384
2356.000000	8.574040
2355.000000	8.554808
2354.000000	8.548360
2353.000000	8.548249
2352.000000	8.549806
2351.000000	8.574040
2350.000000	8.595718
2349.000000	8.604834
2348.000000	8.627401
2347.000000	8.656860
2346.000000	8.674202
2345.000000	8.714667
2344.000000	8.758912
2343.000000	8.787371
2342.000000	8.804602
2341.000000	8.824390
2340.000000	8.830504
2339.000000	8.858296
2338.000000	8.881197
2337.000000	8.879418
2336.000000	8.895982
2335.000000	8.898539
2334.000000	8.881308
2333.000000	8.861742
2332.000000	8.862409
2331.000000	8.842288
2330.000000	8.810161
2329.000000	8.791484
2328.000000	8.734566
2327.000000	8.718892
2326.000000	8.683540
2325.000000	8.648856
2324.000000	8.609836
2323.000000	8.565258
2322.000000	8.515344
2321.000000	8.472989
2320.000000	8.415181
2319.000000	8.368157
2318.000000	8.325691
2317.000000	8.270441
2316.000000	8.213523
2315.000000	8.152603
2314.000000	8.105245
2313.000000	8.067560
2312.000000	8.027650
2311.000000	7.991187
2310.000000	7.972622
2309.000000	7.962728
2308.000000	7.930823
2307.000000	7.922486
2306.000000	7.951278
2305.000000	7.940939
2304.000000	7.978848
2303.000000	8.011420
2302.000000	8.048328
2301.000000	8.087792
2300.000000	8.153270
2299.000000	8.201294
2298.000000	8.262659
2297.000000	8.310128
2296.000000	8.363377
2295.000000	8.425298
2294.000000	8.449866
2293.000000	8.496000
2292.000000	8.525793
2291.000000	8.545581
2290.000000	8.567370
2289.000000	8.576931
2288.000000	8.582934
2287.000000	8.569038
2286.000000	8.579265
2285.000000	8.570260
2284.000000	8.528906
2283.000000	8.517900
2282.000000	8.506784
2281.000000	8.494555
2280.000000	8.453645
2279.000000	8.438193
2278.000000	8.418628
2277.000000	8.412069
2276.000000	8.395505
2275.000000	8.373605
2274.000000	8.392948
2273.000000	8.377940
2272.000000	8.390502
2271.000000	8.409178
2270.000000	8.447642
2269.000000	8.467541
2268.000000	8.513343
2267.000000	8.563035
2266.000000	8.625622
2265.000000	8.719892
2264.000000	8.809271
2263.000000	8.898094
2262.000000	9.024937
2261.000000	9.152669
2260.000000	9.282846
2259.000000	9.411578
2258.000000	9.570326
2257.000000	9.708841
2256.000000	9.879928
2255.000000	10.020778
2254.000000	10.181971
2253.000000	10.325711
2252.000000	10.489906
2251.000000	10.586511
2250.000000	10.731029
2249.000000	10.853203
2248.000000	10.985826
2247.000000	11.105442
2246.000000	11.187929
2245.000000	11.289648
2244.000000	11.405818
2243.000000	11.478966
2242.000000	11.563009
2241.000000	11.652388
2240.000000	11.720534
2239.000000	11.791570
2238.000000	11.856270
2237.000000	11.916856
2236.000000	11.948206
2235.000000	12.000232
2234.000000	12.074715
2233.000000	12.085276
2232.000000	12.148975
2231.000000	12.162760
2230.000000	12.200779
2229.000000	12.205559
2228.000000	12.224791
2227.000000	12.257586
2226.000000	12.240688
2225.000000	12.260587
2224.000000	12.251471
2223.000000	12.246802
2222.000000	12.250360
2221.000000	12.237464
2220.000000	12.227682
2219.000000	12.215564
2218.000000	12.216565
2217.000000	12.225014
2216.000000	12.178212
2215.000000	12.176322
2214.000000	12.158091
2213.000000	12.150865
2212.000000	12.134412
2211.000000	12.128298
2210.000000	12.090834
2209.000000	12.073158
2208.000000	12.087277
2207.000000	12.067489
2206.000000	12.040920
2205.000000	12.045033
2204.000000	12.031359
2203.000000	12.025801
2202.000000	12.030803
2201.000000	12.021021
2200.000000	11.998898
2199.000000	11.993562
2198.000000	11.974997
2197.000000	11.970328
2196.000000	11.956988
2195.000000	11.952986
2194.000000	11.961768
2193.000000	11.924193
2192.000000	11.919969
2191.000000	11.934421
2190.000000	11.920636
2189.000000	11.927973
2188.000000	11.917412
2187.000000	11.875168
2186.000000	11.892955
2185.000000	11.862273
2184.000000	11.857937
2183.000000	11.828700
2182.000000	11.837705
2181.000000	11.823809
2180.000000	11.800575
2179.000000	11.766891
2178.000000	11.764890
2177.000000	11.770782
2176.000000	11.769670
2175.000000	11.772338
2174.000000	11.775340
2173.000000	11.779342
2172.000000	11.766224
2171.000000	11.773450
2170.000000	11.786345
2169.000000	11.807356
2168.000000	11.791459
2167.000000	11.811803
2166.000000	11.820252
2165.000000	11.832702
2164.000000	11.837371
2163.000000	11.841262
2162.000000	11.859605
2161.000000	11.867831
2160.000000	11.889064
2159.000000	11.910853
2158.000000	11.925527
2157.000000	11.951541
2156.000000	11.966548
2155.000000	11.970328
2154.000000	12.005791
2153.000000	12.020354
2152.000000	12.040920
2151.000000	12.066711
2150.000000	12.101506
2149.000000	12.108510
2148.000000	12.116958
2147.000000	12.142861
2146.000000	12.166762
2145.000000	12.161648
2144.000000	12.169318
2143.000000	12.185549
2142.000000	12.196999
2141.000000	12.221012
2140.000000	12.227237
2139.000000	12.237798
2138.000000	12.257363
2137.000000	12.274706
2136.000000	12.253917
2135.000000	12.258809
2134.000000	12.272705
2133.000000	12.264812
2132.000000	12.264256
2131.000000	12.255362
2130.000000	12.254918
2129.000000	12.241244
2128.000000	12.225903
2127.000000	12.208672
2126.000000	12.202891
2125.000000	12.194776
2124.000000	12.174543
2123.000000	12.157868
2122.000000	12.142972
2121.000000	12.127186
2120.000000	12.097838
2119.000000	12.069379
2118.000000	12.049146
2117.000000	12.024800
2116.000000	11.988337
2115.000000	11.970662
2114.000000	11.960101
2113.000000	11.934199
2112.000000	11.902627
2111.000000	11.885396
2110.000000	11.854825
2109.000000	11.825143
2108.000000	11.800575
2107.000000	11.766891
2106.000000	11.750772
2105.000000	11.736209
2104.000000	11.711863
2103.000000	11.684627
2102.000000	11.662393
2101.000000	11.629599
2100.000000	11.600806
2099.000000	11.586799
2098.000000	11.561119
2097.000000	11.552337
2096.000000	11.539219
2095.000000	11.521099
2094.000000	11.505202
2093.000000	11.481968
2092.000000	11.462402
2091.000000	11.447172
2090.000000	11.431053
2089.000000	11.416601
2088.000000	11.413377
2087.000000	11.404373
2086.000000	11.379916
2085.000000	11.364130
2084.000000	11.365575
2083.000000	11.340896
2082.000000	11.324110
2081.000000	11.303988
2080.000000	11.282533
2079.000000	11.282199
2078.000000	11.256853
2077.000000	11.243068
2076.000000	11.233841
2075.000000	11.212497
2074.000000	11.188485
2073.000000	11.174033
2072.000000	11.155468
2071.000000	11.141016
2070.000000	11.131567
2069.000000	11.098328
2068.000000	11.083987
2067.000000	11.061976
2066.000000	11.048858
2065.000000	11.041187
2064.000000	11.021177
2063.000000	11.010394
2062.000000	11.018176
2061.000000	11.021955
2060.000000	11.010950
2059.000000	11.018732
2058.000000	11.022734
2057.000000	11.038631
2056.000000	11.045857
2055.000000	11.073760
2054.000000	11.119894
2053.000000	11.149354
2052.000000	11.193821
2051.000000	11.230951
2050.000000	11.288758
2049.000000	11.353569
2048.000000	11.419380
2047.000000	11.504090
2046.000000	11.585132
2045.000000	11.653277
2044.000000	11.724647
2043.000000	11.779008
2042.000000	11.853491
2041.000000	11.941647
2040.000000	12.024244
2039.000000	12.083275
2038.000000	12.159313
2037.000000	12.226348
2036.000000	12.312614
2035.000000	12.368976
2034.000000	12.443792
2033.000000	12.488926
2032.000000	12.529947
2031.000000	12.593313
2030.000000	12.635890
2029.000000	12.708816
2028.000000	12.737275
2027.000000	12.792748
2026.000000	12.834102
2025.000000	12.869009
2024.000000	12.912364
2023.000000	12.949494
2022.000000	12.984957
2021.000000	13.031425
2020.000000	13.050212
2019.000000	13.083118
2018.000000	13.118914
2017.000000	13.126473
2016.000000	13.152264
2015.000000	13.176277
2014.000000	13.202512
2013.000000	13.218854
2012.000000	13.205847
2011.000000	13.216519
2010.000000	13.225524
2009.000000	13.227636
2008.000000	13.220299
2007.000000	13.247869
2006.000000	13.232083
2005.000000	13.236641
2004.000000	13.211739
2003.000000	13.220077
2002.000000	13.197843
2001.000000	13.177166
2000.000000	13.157045
1999.000000	13.141370
1998.000000	13.104129
1997.000000	13.088676
1996.000000	13.063664
1995.000000	13.041319
1994.000000	13.026978
1993.000000	12.985513
1992.000000	12.946048
1991.000000	12.929706
1990.000000	12.884906
1989.000000	12.835992
1988.000000	12.795749
1987.000000	12.766845
1986.000000	12.731272
1985.000000	12.672242
1984.000000	12.638558
1983.000000	12.610544
1982.000000	12.553737
1981.000000	12.520275
1980.000000	12.488815
1979.000000	12.447349
1978.000000	12.391543
1977.000000	12.361639
1976.000000	12.322397
1975.000000	12.278152
1974.000000	12.256808
1973.000000	12.212229
1972.000000	12.164205
1971.000000	12.119849
1970.000000	12.098282
1969.000000	12.040253
1968.000000	12.019242
1967.000000	11.998898
1966.000000	11.953097
1965.000000	11.916523
1964.000000	11.895957
1963.000000	11.865608
1962.000000	11.814248
1961.000000	11.780676
1960.000000	11.758331
1959.000000	11.722313
1958.000000	11.700190
1957.000000	11.653722
1956.000000	11.615480
1955.000000	11.588578
1954.000000	11.555894
1953.000000	11.536662
1952.000000	11.501978
1951.000000	11.468072
1950.000000	11.467071
1949.000000	11.434388
1948.000000	11.410376
1947.000000	11.382362
1946.000000	11.362685
1945.000000	11.343453
1944.000000	11.317773
1943.000000	11.319774
1942.000000	11.313771
1941.000000	11.315216
1940.000000	11.333448
1939.000000	11.331113
1938.000000	11.325110
1937.000000	11.326666
1936.000000	11.340674
1935.000000	11.360906
1934.000000	11.385585
1933.000000	11.441058
1932.000000	11.474408
1931.000000	11.493085
1930.000000	11.537996
1929.000000	11.585687
1928.000000	11.652610
1927.000000	11.699190
1926.000000	11.756441
1925.000000	11.827033
1924.000000	11.873723
1923.000000	11.968883
1922.000000	12.041698
1921.000000	12.130076
1920.000000	12.216676
1919.000000	12.297606
1918.000000	12.403216
1917.000000	12.530947
1916.000000	12.616435
1915.000000	12.744834
1914.000000	12.880681
1913.000000	12.981177
1912.000000	13.098237
1911.000000	13.230638
1910.000000	13.368597
1909.000000	13.490214
1908.000000	13.624616
1907.000000	13.783030
1906.000000	13.960899
1905.000000	14.118090
1904.000000	14.260496
1903.000000	14.424802
1902.000000	14.578770
1901.000000	14.774314
1900.000000	14.966523
1899.000000	15.151729
1898.000000	15.339936
1897.000000	15.508133
1896.000000	15.683000
1895.000000	15.872652
1894.000000	16.081203
1893.000000	16.305428
1892.000000	16.553221
1891.000000	16.759326
1890.000000	16.986665
1889.000000	17.239571
1888.000000	17.500705
1887.000000	17.801080
1886.000000	18.127691
1885.000000	18.551018
1884.000000	18.957559
1883.000000	19.357207
1882.000000	19.800433
1881.000000	20.229652
1880.000000	20.657982
1879.000000	21.115548
1878.000000	21.527648
1877.000000	21.922293
1876.000000	22.308046
1875.000000	22.665005
1874.000000	23.017519
1873.000000	23.335236
1872.000000	23.619826
1871.000000	23.864506
1870.000000	24.099181
1869.000000	24.290612
1868.000000	24.432018
1867.000000	24.532847
1866.000000	24.632120
1865.000000	24.727613
1864.000000	24.803652
1863.000000	24.896588
1862.000000	24.972294
1861.000000	25.023653
1860.000000	25.045887
1859.000000	25.065897
1858.000000	25.072678
1857.000000	25.054113
1856.000000	25.031212
1855.000000	25.003309
1854.000000	24.931495
1853.000000	24.860570
1852.000000	24.821216
1851.000000	24.792202
1850.000000	24.747735
1849.000000	24.669806
1848.000000	24.576981
1847.000000	24.477930
1846.000000	24.394332
1845.000000	24.336414
1844.000000	24.323740
1843.000000	24.307955
1842.000000	24.275938
1841.000000	24.232694
1840.000000	24.174442
1839.000000	24.116413
1838.000000	24.051046
1837.000000	23.970449
1836.000000	23.885628
1835.000000	23.800251
1834.000000	23.717098
1833.000000	23.646506
1832.000000	23.576693
1831.000000	23.477420
1830.000000	23.374145
1829.000000	23.276651
1828.000000	23.186827
1827.000000	23.108565
1826.000000	23.026634
1825.000000	22.965826
1824.000000	22.939368
1823.000000	22.922581
1822.000000	22.892233
1821.000000	22.851212
1820.000000	22.801520
1819.000000	22.774617
1818.000000	22.755718
1817.000000	22.744935
1816.000000	22.740711
1815.000000	22.731484
1814.000000	22.730483
1813.000000	22.717254
1812.000000	22.685794
1811.000000	22.640993
1810.000000	22.589634
1809.000000	22.546723
1808.000000	22.511705
1807.000000	22.459123
1806.000000	22.402427
1805.000000	22.344620
1804.000000	22.305489
1803.000000	22.279476
1802.000000	22.221335
1801.000000	22.164194
1800.000000	22.110945
1799.000000	22.060253
1798.000000	22.014451
1797.000000	21.975876
1796.000000	21.927741
1795.000000	21.885941
1794.000000	21.838584
1793.000000	21.780332
1792.000000	21.724081
1791.000000	21.666607
1790.000000	21.615025
1789.000000	21.550103
1788.000000	21.491852
1787.000000	21.425596
1786.000000	21.342220
1785.000000	21.265736
1784.000000	21.200925
1783.000000	21.128110
1782.000000	21.046736
1781.000000	20.988484
1780.000000	20.896214
1779.000000	20.784046
1778.000000	20.707674
1777.000000	20.614960
1776.000000	20.503236
1775.000000	20.375060
1774.000000	20.270895
1773.000000	20.152168
1772.000000	20.034553
1771.000000	19.918716
1770.000000	19.779534
1769.000000	19.682929
1768.000000	19.595329
1767.000000	19.504727
1766.000000	19.423130
1765.000000	19.407788
1764.000000	19.373326
1763.000000	19.391447
1762.000000	19.444252
1761.000000	19.498279
1760.000000	19.562645
1759.000000	19.646910
1758.000000	19.732510
1757.000000	19.770974
1756.000000	19.830226
1755.000000	19.869580
1754.000000	19.885921
1753.000000	19.880141
1752.000000	19.851793
1751.000000	19.822778
1750.000000	19.807881
1749.000000	19.737068
1748.000000	19.646910
1747.000000	19.558421
1746.000000	19.462928
1745.000000	19.329971
1744.000000	19.170890
1743.000000	18.988130
1742.000000	18.755011
1741.000000	18.571362
1740.000000	18.365590
1739.000000	18.165266
1738.000000	18.010631
1737.000000	17.873784
1736.000000	17.776957
1735.000000	17.732045
1734.000000	17.749276
1733.000000	17.781959
1732.000000	17.850327
1731.000000	17.951045
1730.000000	18.057100
1729.000000	18.167600
1728.000000	18.298334
1727.000000	18.404832
1726.000000	18.475980
1725.000000	18.553019
1724.000000	18.600821
1723.000000	18.598153
1722.000000	18.631504
1721.000000	18.636062
1720.000000	18.650513
1719.000000	18.672525
1718.000000	18.692312
1717.000000	18.712211
1716.000000	18.768018
1715.000000	18.831050
1714.000000	18.893526
1713.000000	18.932101
1712.000000	18.943218
1711.000000	18.946553
1710.000000	18.948332
1709.000000	18.944219
1708.000000	18.908089
1707.000000	18.881187
1706.000000	18.841277
1705.000000	18.765906
1704.000000	18.712990
1703.000000	18.601155
1702.000000	18.464863
1701.000000	18.342467
1700.000000	18.188833
1699.000000	18.050874
1698.000000	17.920585
1697.000000	17.840433
1696.000000	17.820646
1695.000000	17.824870
1694.000000	17.939706
1693.000000	18.060101
1692.000000	18.196170
1691.000000	18.352806
1690.000000	18.485207
1689.000000	18.568694
1688.000000	18.586481
1687.000000	18.614495
1686.000000	18.616607
1685.000000	18.656072
1684.000000	18.809372
1683.000000	19.029707
1682.000000	19.401785
1681.000000	19.877695
1680.000000	20.386955
1679.000000	20.933900
1678.000000	21.446717
1677.000000	21.955644
1676.000000	22.354180
1675.000000	22.695465
1674.000000	23.062875
1673.000000	23.331568
1672.000000	23.520998
1671.000000	23.745223
1670.000000	23.938989
1669.000000	24.074169
1668.000000	24.177666
1667.000000	24.294837
1666.000000	24.365651
1665.000000	24.431907
1664.000000	24.503499
1663.000000	24.546854
1662.000000	24.575869
1661.000000	24.602216
1660.000000	24.634343
1659.000000	24.636233
1658.000000	24.632454
1657.000000	24.625116
1656.000000	24.595546
1655.000000	24.586208
1654.000000	24.552969
1653.000000	24.520619
1652.000000	24.476040
1651.000000	24.441467
1650.000000	24.396778
1649.000000	24.341416
1648.000000	24.270380
1647.000000	24.207904
1646.000000	24.141092
1645.000000	24.076503
1644.000000	24.001687
1643.000000	23.935098
1642.000000	23.858170
1641.000000	23.785577
1640.000000	23.703313
1639.000000	23.625495
1638.000000	23.556016
1637.000000	23.483645
1636.000000	23.397713
1635.000000	23.325898
1634.000000	23.235852
1633.000000	23.140359
1632.000000	23.050980
1631.000000	22.980389
1630.000000	22.876113
1629.000000	22.787290
1628.000000	22.699801
1627.000000	22.602196
1626.000000	22.514707
1625.000000	22.426662
1624.000000	22.370077
1623.000000	22.276474
1622.000000	22.193320
1621.000000	22.116392
1620.000000	22.053360
1619.000000	21.980323
1618.000000	21.869822
1617.000000	21.800120
1616.000000	21.730529
1615.000000	21.670609
1614.000000	21.586344
1613.000000	21.501523
1612.000000	21.454388
1611.000000	21.419037
1610.000000	21.355337
1609.000000	21.280744
1608.000000	21.214821
1607.000000	21.154124
1606.000000	21.089313
1605.000000	21.043734
1604.000000	20.985816
1603.000000	20.923228
1602.000000	20.867978
1601.000000	20.818619
1600.000000	20.754253
1599.000000	20.716456
1598.000000	20.653090
1597.000000	20.605844
1596.000000	20.578497
1595.000000	20.536031
1594.000000	20.505237
1593.000000	20.470108
1592.000000	20.439759
1591.000000	20.420750
1590.000000	20.391846
1589.000000	20.357717
1588.000000	20.345267
1587.000000	20.331037
1586.000000	20.300244
1585.000000	20.286125
1584.000000	20.276454
1583.000000	20.273563
1582.000000	20.261780
1581.000000	20.251219
1580.000000	20.253776
1579.000000	20.254887
1578.000000	20.256555
1577.000000	20.273230
1576.000000	20.279678
1575.000000	20.293240
1574.000000	20.320365
1573.000000	20.349602
1572.000000	20.382730
1571.000000	20.393847
1570.000000	20.412523
1569.000000	20.455656
1568.000000	20.488117
1567.000000	20.514798
1566.000000	20.541256
1565.000000	20.564156
1564.000000	20.584166
1563.000000	20.618740
1562.000000	20.659316
1561.000000	20.679548
1560.000000	20.694222
1559.000000	20.717901
1558.000000	20.740579
1557.000000	20.751585
1556.000000	20.761590
1555.000000	20.765370
1554.000000	20.777487
1553.000000	20.783046
1552.000000	20.776153
1551.000000	20.781934
1550.000000	20.788493
1549.000000	20.781156
1548.000000	20.767593
1547.000000	20.774708
1546.000000	20.783157
1545.000000	20.772373
1544.000000	20.775375
1543.000000	20.771595
1542.000000	20.763702
1541.000000	20.768483
1540.000000	20.768705
1539.000000	20.757255
1538.000000	20.752363
1537.000000	20.758144
1536.000000	20.756588
1535.000000	20.734021
1534.000000	20.713788
1533.000000	20.709008
1532.000000	20.690887
1531.000000	20.674212
1530.000000	20.643419
1529.000000	20.629745
1528.000000	20.597951
1527.000000	20.560821
1526.000000	20.537698
1525.000000	20.514798
1524.000000	20.496677
1523.000000	20.467218
1522.000000	20.433312
1521.000000	20.392068
1520.000000	20.356717
1519.000000	20.325145
1518.000000	20.274342
1517.000000	20.249551
1516.000000	20.226873
1515.000000	20.178626
1514.000000	20.135604
1513.000000	20.105811
1512.000000	20.072239
1511.000000	20.026326
1510.000000	19.987306
1509.000000	19.942061
1508.000000	19.887922
1507.000000	19.838564
1506.000000	19.824001
1505.000000	19.775643
1504.000000	19.740847
1503.000000	19.690155
1502.000000	19.645243
1501.000000	19.616006
1500.000000	19.584545
1499.000000	19.556865
1498.000000	19.509174
1497.000000	19.480492
1496.000000	19.459259
1495.000000	19.435803
1494.000000	19.411235
1493.000000	19.379997
1492.000000	19.381998
1491.000000	19.350426
1490.000000	19.338753
1489.000000	19.318632
1488.000000	19.317743
1487.000000	19.297510
1486.000000	19.282502
1485.000000	19.271163
1484.000000	19.268718
1483.000000	19.260158
1482.000000	19.271052
1481.000000	19.279056
1480.000000	19.272942
1479.000000	19.285170
1478.000000	19.289172
1477.000000	19.292841
1476.000000	19.307070
1475.000000	19.321411
1474.000000	19.352760
1473.000000	19.375216
1472.000000	19.375327
1471.000000	19.390335
1470.000000	19.410457
1469.000000	19.426909
1468.000000	19.447253
1467.000000	19.476268
1466.000000	19.515955
1465.000000	19.538633
1464.000000	19.606779
1463.000000	19.633793
1462.000000	19.694157
1461.000000	19.754521
1460.000000	19.802879
1459.000000	19.886032
1458.000000	19.964295
1457.000000	20.037332
1456.000000	20.116039
1455.000000	20.189743
1454.000000	20.294574
1453.000000	20.412523
1452.000000	20.475555
1451.000000	20.590392
1450.000000	20.693111
1449.000000	20.782712
1448.000000	20.940682
1447.000000	21.063300
1446.000000	21.183250
1445.000000	21.284412
1444.000000	21.407364
1443.000000	21.553994
1442.000000	21.678836
1441.000000	21.805901
1440.000000	21.934855
1439.000000	22.076817
1438.000000	22.207883
1437.000000	22.344842
1436.000000	22.471907
1435.000000	22.627875
1434.000000	22.752606
1433.000000	22.950262
1432.000000	23.084219
1431.000000	23.243856
1430.000000	23.416166
1429.000000	23.631498
1428.000000	23.820817
1427.000000	24.028479
1426.000000	24.268935
1425.000000	24.501831
1424.000000	24.733727
1423.000000	24.952617
1422.000000	25.213528
1421.000000	25.466434
1420.000000	25.756916
1419.000000	25.991258
1418.000000	26.209035
1417.000000	26.469724
1416.000000	26.745865
1415.000000	27.029009
1414.000000	27.288475
1413.000000	27.521149
1412.000000	27.817300
1411.000000	28.147913
1410.000000	28.523661
1409.000000	28.892627
1408.000000	29.284938
1407.000000	29.644010
1406.000000	30.091571
1405.000000	30.476434
1404.000000	30.894981
1403.000000	31.284069
1402.000000	31.761312
1401.000000	32.126387
1400.000000	32.436657
1399.000000	32.642428
1398.000000	32.953587
1397.000000	33.254740
1396.000000	33.515763
1395.000000	33.704970
1394.000000	33.876280
1393.000000	34.103729
1392.000000	34.335847
1391.000000	34.581195
1390.000000	34.878791
1389.000000	35.253871
1388.000000	35.598158
1387.000000	36.002809
1386.000000	36.457596
1385.000000	36.958407
1384.000000	37.434095
1383.000000	37.871429
1382.000000	38.203153
1381.000000	38.384468
1380.000000	38.575899
1379.000000	38.670169
1378.000000	38.791787
1377.000000	38.935749
1376.000000	39.135296
1375.000000	39.426444
1374.000000	39.792075
1373.000000	40.172380
1372.000000	40.598264
1371.000000	40.997690
1370.000000	41.344534
1369.000000	41.696491
1368.000000	41.974633
1367.000000	42.237434
1366.000000	42.480002
1365.000000	42.676658
1364.000000	42.857416
1363.000000	43.048847
1362.000000	43.186028
1361.000000	43.260400
1360.000000	43.313538
1359.000000	43.410476
1358.000000	43.575005
1357.000000	43.854925
1356.000000	44.295483
1355.000000	44.840428
1354.000000	45.413720
1353.000000	46.067832
1352.000000	46.691150
1351.000000	47.265554
1350.000000	47.785486
1349.000000	48.258505
1348.000000	48.681498
1347.000000	49.087706
1346.000000	49.481017
1345.000000	49.847315
1344.000000	50.199940
1343.000000	50.521103
1342.000000	50.844935
1341.000000	51.167211
1340.000000	51.463473
1339.000000	51.747951
1338.000000	52.023092
1337.000000	52.286115
1336.000000	52.531017
1335.000000	52.766249
1334.000000	52.996922
1333.000000	53.224038
1332.000000	53.448819
1331.000000	53.643029
1330.000000	53.822899
1329.000000	54.006326
1328.000000	54.181081
1327.000000	54.354725
1326.000000	54.509026
1325.000000	54.652211
1324.000000	54.808179
1323.000000	54.945805
1322.000000	55.054860
1321.000000	55.188818
1320.000000	55.321663
1319.000000	55.443392
1318.000000	55.553115
1317.000000	55.657168
1316.000000	55.765667
1315.000000	55.863829
1314.000000	55.976108
1313.000000	56.080495
1312.000000	56.154866
1311.000000	56.239687
1310.000000	56.308833
1309.000000	56.371421
1308.000000	56.439789
1307.000000	56.484478
1306.000000	56.524721
1305.000000	56.554848
1304.000000	56.581306
1303.000000	56.612433
1302.000000	56.627107
1301.000000	56.646672
1300.000000	56.663236
1299.000000	56.684025
1298.000000	56.704368
1297.000000	56.707370
1296.000000	56.719821
1295.000000	56.735607
1294.000000	56.722600
1293.000000	56.720265
1292.000000	56.701367
1291.000000	56.670018
1290.000000	56.647784
1289.000000	56.624995
1288.000000	56.596091
1287.000000	56.548733
1286.000000	56.493038
1285.000000	56.436676
1284.000000	56.370865
1283.000000	56.305387
1282.000000	56.240465
1281.000000	56.184548
1280.000000	56.118069
1279.000000	56.055482
1278.000000	56.005345
1277.000000	55.954319
1276.000000	55.913632
1275.000000	55.870165
1274.000000	55.817694
1273.000000	55.783343
1272.000000	55.758553
1271.000000	55.705192
1270.000000	55.660836
1269.000000	55.615702
1268.000000	55.562675
1267.000000	55.520542
1266.000000	55.458177
1265.000000	55.401370
1264.000000	55.345342
1263.000000	55.288646
1262.000000	55.241178
1261.000000	55.189262
1260.000000	55.116670
1259.000000	55.045633
1258.000000	54.992829
1257.000000	54.914900
1256.000000	54.835637
1255.000000	54.764157
1254.000000	54.683338
1253.000000	54.575949
1252.000000	54.480456
1251.000000	54.371623
1250.000000	54.261122
1249.000000	54.139949
1248.000000	54.013663
1247.000000	53.862363
1246.000000	53.715955
1245.000000	53.575661
1244.000000	53.385231
1243.000000	53.214922
1242.000000	53.045280
1241.000000	52.858518
1240.000000	52.674090
1239.000000	52.486884
1238.000000	52.292785
1237.000000	52.104467
1236.000000	51.883687
1235.000000	51.666688
1234.000000	51.467141
1233.000000	51.257924
1232.000000	51.032698
1231.000000	50.805248
1230.000000	50.582913
1229.000000	50.363023
1228.000000	50.138686
1227.000000	49.916684
1226.000000	49.690124
1225.000000	49.465231
1224.000000	49.236670
1223.000000	49.033900
1222.000000	48.834576
1221.000000	48.642478
1220.000000	48.440153
1219.000000	48.263841
1218.000000	48.087306
1217.000000	47.929003
1216.000000	47.769255
1215.000000	47.604171
1214.000000	47.463766
1213.000000	47.330365
1212.000000	47.224422
1211.000000	47.097023
1210.000000	46.976295
1209.000000	46.884248
1208.000000	46.816769
1207.000000	46.765187
1206.000000	46.722388
1205.000000	46.708825
1204.000000	46.692261
1203.000000	46.687815
1202.000000	46.692150
1201.000000	46.647016
1200.000000	46.610775
1199.000000	46.493605
1198.000000	46.356423
1197.000000	46.168550
1196.000000	45.890297
1195.000000	45.552680
1194.000000	45.134467
1193.000000	44.627208
1192.000000	44.086488
1191.000000	43.571114
1190.000000	43.122440
1189.000000	42.767926
1188.000000	42.529471
1187.000000	42.491785
1186.000000	42.585389
1185.000000	42.838629
1184.000000	43.251062
1183.000000	43.806678
1182.000000	44.410320
1181.000000	45.070545
1180.000000	45.706092
1179.000000	46.263709
1178.000000	46.761964
1177.000000	47.209081
1176.000000	47.590720
1175.000000	47.992925
1174.000000	48.371785
1173.000000	48.772545
1172.000000	49.204432
1171.000000	49.643100
1170.000000	50.075654
1169.000000	50.507430
1168.000000	50.922419
1167.000000	51.368202
1166.000000	51.812429
1165.000000	52.267661
1164.000000	52.740124
1163.000000	53.177125
1162.000000	53.615015
1161.000000	54.057129
1160.000000	54.431765
1159.000000	54.827411
1158.000000	55.187039
1157.000000	55.479410
1156.000000	55.722979
1155.000000	55.897179
1154.000000	56.018018
1153.000000	56.099060
1152.000000	56.097059
1151.000000	56.109621
1150.000000	56.115401
1149.000000	56.119737
1148.000000	56.183992
1147.000000	56.306388
1146.000000	56.516272
1145.000000	56.789523
1144.000000	57.130141
1143.000000	57.498107
1142.000000	57.893975
1141.000000	58.306519
1140.000000	58.704722
1139.000000	59.143835
1138.000000	59.554267
1137.000000	60.032955
1136.000000	60.480739
1135.000000	60.891949
1134.000000	61.236124
1133.000000	61.574297
1132.000000	61.892126
1131.000000	62.177938
1130.000000	62.429511
1129.000000	62.644732
1128.000000	62.804925
1127.000000	62.935547
1126.000000	63.044602
1125.000000	63.146099
1124.000000	63.230475
1123.000000	63.303068
1122.000000	63.390223
1121.000000	63.443361
1120.000000	63.480714
1119.000000	63.521957
1118.000000	63.544858
1117.000000	63.579876
1116.000000	63.577874
1115.000000	63.585656
1114.000000	63.587546
1113.000000	63.604110
1112.000000	63.603999
1111.000000	63.601664
1110.000000	63.613782
1109.000000	63.617228
1108.000000	63.619896
1107.000000	63.622119
1106.000000	63.622230
1105.000000	63.647799
1104.000000	63.642796
1103.000000	63.644019
1102.000000	63.652690
1101.000000	63.637127
1100.000000	63.613671
1099.000000	63.607445
1098.000000	63.584211
1097.000000	63.555196
1096.000000	63.548526
1095.000000	63.522624
1094.000000	63.489051
1093.000000	63.464928
1092.000000	63.431133
1091.000000	63.397671
1090.000000	63.359430
1089.000000	63.317519
1088.000000	63.267827
1087.000000	63.212577
1086.000000	63.171556
1085.000000	63.122420
1084.000000	63.084512
1083.000000	63.029150
1082.000000	62.992354
1081.000000	62.937770
1080.000000	62.893859
1079.000000	62.846057
1078.000000	62.793252
1077.000000	62.742782
1076.000000	62.692645
1075.000000	62.645955
1074.000000	62.610492
1073.000000	62.563690
1072.000000	62.502771
1071.000000	62.465307
1070.000000	62.425398
1069.000000	62.375372
1068.000000	62.320011
1067.000000	62.275655
1066.000000	62.239970
1065.000000	62.206953
1064.000000	62.153704
1063.000000	62.101121
1062.000000	62.046982
1061.000000	62.001848
1060.000000	61.963940
1059.000000	61.908134
1058.000000	61.848548
1057.000000	61.803747
1056.000000	61.759169
1055.000000	61.728709
1054.000000	61.680240
1053.000000	61.645333
1052.000000	61.613428
1051.000000	61.577187
1050.000000	61.577298
1049.000000	61.565515
1048.000000	61.541947
1047.000000	61.531831
1046.000000	61.540280
1045.000000	61.539946
1044.000000	61.524383
1043.000000	61.532276
1042.000000	61.543059
1041.000000	61.529941
1040.000000	61.537278
1039.000000	61.556621
1038.000000	61.552508
1037.000000	61.545504
1036.000000	61.552286
1035.000000	61.558400
1034.000000	61.551063
1033.000000	61.539724
1032.000000	61.538612
1031.000000	61.546616
1030.000000	61.552508
1029.000000	61.549395
1028.000000	61.541947
1027.000000	61.540168
1026.000000	61.523827
1025.000000	61.512265
1024.000000	61.522048
1023.000000	61.512043
1022.000000	61.507263
1021.000000	61.521715
1020.000000	61.520936
1019.000000	61.524494
1018.000000	61.534832
1017.000000	61.553175
1016.000000	61.576854
1015.000000	61.595196
1014.000000	61.623100
1013.000000	61.671458
1012.000000	61.719149
1011.000000	61.769619
1010.000000	61.836208
1009.000000	61.884566
1008.000000	61.925476
1007.000000	61.968276
1006.000000	62.023860
1005.000000	62.072551
1004.000000	62.094118
1003.000000	62.120242
1002.000000	62.159262
1001.000000	62.182941
1000.000000	62.218403
999.000000	62.255200
998.000000	62.290440
997.000000	62.323568
996.000000	62.365589
995.000000	62.406833
994.000000	62.458192
993.000000	62.514665
992.000000	62.574474
991.000000	62.616606
990.000000	62.665854
989.000000	62.702761
988.000000	62.769129
987.000000	62.808037
986.000000	62.857396
985.000000	62.916426
984.000000	62.980236
983.000000	63.052051
982.000000	63.115083
981.000000	63.183896
980.000000	63.252597
979.000000	63.353983
978.000000	63.423351
977.000000	63.520401
976.000000	63.613893
975.000000	63.705606
974.000000	63.813995
973.000000	63.932722
972.000000	64.054340
971.000000	64.166397
970.000000	64.302133
969.000000	64.423195
968.000000	64.563377
967.000000	64.697890
966.000000	64.808391
965.000000	64.969362
964.000000	65.119994
963.000000	65.263957
962.000000	65.413922
961.000000	65.554661
960.000000	65.709629
959.000000	65.867709
958.000000	66.017230
957.000000	66.173976
956.000000	66.309379
955.000000	66.430774
954.000000	66.576404
953.000000	66.678011
952.000000	66.811190
951.000000	66.941257
950.000000	67.044420
949.000000	67.159479
948.000000	67.256973
947.000000	67.355357
946.000000	67.473862
945.000000	67.586252
944.000000	67.643949
943.000000	67.703090
942.000000	67.770346
941.000000	67.867285
940.000000	67.925537
939.000000	67.993460
938.000000	68.060050
937.000000	68.124638
936.000000	68.187670
935.000000	68.282608
934.000000	68.324296
933.000000	68.411451
932.000000	68.475595
931.000000	68.553857
930.000000	68.627673
929.000000	68.673140
928.000000	68.778416
927.000000	68.826441
926.000000	68.916709
925.000000	68.945612
924.000000	69.002308
923.000000	69.053890
922.000000	69.186402
921.000000	69.222420
920.000000	69.269778
919.000000	69.336256
918.000000	69.393285
917.000000	69.434306
916.000000	69.509233
915.000000	69.581604
914.000000	69.642635
913.000000	69.718006
912.000000	69.797825
911.000000	69.884981
910.000000	69.962464
909.000000	70.060181
908.000000	70.177241
907.000000	70.264841
906.000000	70.398798
905.000000	70.509299
904.000000	70.643701
903.000000	70.764874
902.000000	70.884046
901.000000	70.921620
900.000000	71.058690
899.000000	71.165523
898.000000	71.247787
897.000000	71.334942
896.000000	71.445332
895.000000	71.503806
894.000000	71.548051
893.000000	71.541937
892.000000	71.533488
891.000000	71.590962
890.000000	71.515034
889.000000	71.503028
888.000000	71.496803
887.000000	71.432659
886.000000	71.289586
885.000000	71.189090
884.000000	71.009665
883.000000	70.945299
882.000000	70.840913
881.000000	70.634140
880.000000	70.527530
879.000000	70.312643
878.000000	70.150116
877.000000	69.924779
876.000000	69.764252
875.000000	69.483442
874.000000	69.165391
873.000000	68.938720
872.000000	68.572533
871.000000	68.162102
870.000000	67.739886
869.000000	67.286655
868.000000	66.990393
867.000000	66.936365
866.000000	67.008513
865.000000	67.105340
864.000000	67.197387
863.000000	67.266200
862.000000	67.339682
861.000000	67.395488
860.000000	67.439956
859.000000	67.490315
858.000000	68.899367
857.000000	69.160300
856.000000	68.852300
855.000000	68.685500
854.000000	68.419500
853.000000	68.942800
852.000000	69.353800
851.000000	68.927100
850.000000	68.997500
849.000000	69.119400
848.000000	69.030900
847.000000	69.325600
846.000000	69.198000
845.000000	69.388300
844.000000	69.251700
843.000000	69.506300
842.000000	69.115800
841.000000	69.097900
840.000000	69.205600
839.000000	69.244800
838.000000	69.140300
837.000000	68.993300
836.000000	68.942100
835.000000	69.032300
834.000000	68.892300
833.000000	68.883400
832.000000	68.792100
831.000000	68.802000
830.000000	68.726600
829.000000	68.691000
828.000000	68.713500
827.000000	68.702800
826.000000	68.773700
825.000000	68.695500
824.000000	68.548000
823.000000	68.414800
822.000000	68.460300
821.000000	68.428500
820.000000	68.476800
819.000000	68.349500
818.000000	68.357500
817.000000	68.239700
816.000000	68.142800
815.000000	68.002000
814.000000	67.990400
813.000000	67.925400
812.000000	67.950400
811.000000	67.997500
810.000000	67.784700
809.000000	67.656100
808.000000	67.570200
807.000000	67.493700
806.000000	67.396100
805.000000	67.337800
804.000000	67.226700
803.000000	67.002700
802.000000	66.955500
801.000000	66.889300
800.000000	66.667000
799.000000	66.490900
798.000000	66.429500
797.000000	66.145600
796.000000	66.036800
795.000000	65.947400
794.000000	65.810400
793.000000	65.660100
792.000000	65.497400
791.000000	65.273100
790.000000	65.210700
789.000000	65.125000
788.000000	64.967700
787.000000	64.861800
786.000000	64.765100
785.000000	64.604800
784.000000	64.501400
783.000000	64.415600
782.000000	64.177800
781.000000	64.054400
780.000000	63.944800
779.000000	63.735800
778.000000	63.619500
777.000000	63.553600
776.000000	63.419200
775.000000	63.252600
774.000000	63.176900
773.000000	63.013600
772.000000	62.904100
771.000000	62.886100
770.000000	62.774100
769.000000	62.641400
768.000000	62.507800
767.000000	62.420900
766.000000	62.448500
765.000000	62.314200
764.000000	62.198600
763.000000	62.192600
762.000000	62.116300
761.000000	62.049800
760.000000	61.968200
759.000000	61.883800
758.000000	61.786300
757.000000	61.727200
756.000000	61.704300
755.000000	61.686500
754.000000	61.575900
753.000000	61.440300
752.000000	61.399900
751.000000	61.393300
750.000000	61.371100
749.000000	61.323000
748.000000	61.261200
747.000000	61.192800
746.000000	61.185800
745.000000	61.139100
744.000000	61.152000
743.000000	61.103000
742.000000	61.005500
741.000000	60.952700
740.000000	60.834600
739.000000	60.753000
738.000000	60.664000
737.000000	60.542900
736.000000	60.443700
735.000000	60.323900
734.000000	60.221800
733.000000	60.142600
732.000000	60.068000
731.000000	59.972400
730.000000	59.830800
729.000000	59.724800
728.000000	59.672000
727.000000	59.616800
726.000000	59.573100
725.000000	59.488900
724.000000	59.355900
723.000000	59.241600
722.000000	59.124500
721.000000	58.950000
720.000000	58.811600
719.000000	58.669000
718.000000	58.550600
717.000000	58.443600
716.000000	58.313700
715.000000	58.130400
714.000000	57.997000
713.000000	57.835400
712.000000	57.688100
711.000000	57.513500
710.000000	57.386400
709.000000	57.274500
708.000000	57.128500
707.000000	56.936600
706.000000	56.797600
705.000000	56.626500
704.000000	56.495700
703.000000	56.387700
702.000000	56.214500
701.000000	56.080700
700.000000	55.957500
699.000000	55.791600
698.000000	55.655100
697.000000	55.502100
696.000000	55.364000
695.000000	55.248100
694.000000	55.048700
693.000000	54.877600
692.000000	54.754700
691.000000	54.662400
690.000000	54.531300
689.000000	54.464200
688.000000	54.341100
687.000000	54.300200
686.000000	54.278800
685.000000	54.254100
684.000000	54.257400
683.000000	54.325600
682.000000	54.413700
681.000000	54.483600
680.000000	54.544600
679.000000	54.662400
678.000000	54.752800
677.000000	54.846500
676.000000	54.887300
675.000000	54.930800
674.000000	54.996900
673.000000	55.045400
672.000000	55.103100
671.000000	55.148500
670.000000	55.136500
669.000000	55.138800
668.000000	55.112500
667.000000	55.063600
666.000000	55.060200
665.000000	55.107000
664.000000	55.040300
663.000000	54.968200
662.000000	54.915800
661.000000	54.802500
660.000000	54.735400
659.000000	54.619700
658.000000	54.456800
657.000000	54.302000
656.000000	54.023400
655.000000	53.727100
654.000000	53.445300
653.000000	53.064900
652.000000	52.674400
651.000000	52.206000
650.000000	51.771300
649.000000	51.251700
648.000000	50.743600
647.000000	50.286400
646.000000	49.800200
645.000000	49.344100
644.000000	48.937500
643.000000	48.524900
642.000000	48.213300
641.000000	47.953800
640.000000	47.747400
639.000000	47.644400
638.000000	47.530800
637.000000	47.563800
636.000000	47.687600
635.000000	47.844600
634.000000	48.056500
633.000000	48.426300
632.000000	48.807700
631.000000	49.296400
630.000000	49.845900
629.000000	50.422100
628.000000	51.052500
627.000000	51.747200
626.000000	52.527800
625.000000	53.280100
624.000000	54.093600
623.000000	54.946200
622.000000	55.786400
621.000000	56.707800
620.000000	57.602500
619.000000	58.475000
618.000000	59.408300
617.000000	60.274200
616.000000	61.103900
615.000000	61.879100
614.000000	62.605500
613.000000	63.297000
612.000000	63.965200
611.000000	64.559400
610.000000	65.091400
609.000000	65.562900
608.000000	65.958900
607.000000	66.326000
606.000000	66.635300
605.000000	66.930500
604.000000	67.252800
603.000000	67.489400
602.000000	67.796700
601.000000	68.065800
600.000000	68.340900
599.000000	68.627700
598.000000	68.902400
597.000000	69.181300
596.000000	69.490100
595.000000	69.781600
594.000000	70.080700
593.000000	70.403100
592.000000	70.601000
591.000000	70.860300
590.000000	71.030100
589.000000	71.203800
588.000000	71.348200
587.000000	71.438900
586.000000	71.465400
585.000000	71.444600
584.000000	71.490300
583.000000	71.447600
582.000000	71.473000
581.000000	71.438200
580.000000	71.421800
579.000000	71.441000
578.000000	71.436100
577.000000	71.435900
576.000000	71.483500
575.000000	71.464800
574.000000	71.522600
573.000000	71.616400
572.000000	71.613300
571.000000	71.654400
570.000000	71.686800
569.000000	71.682700
568.000000	71.642900
567.000000	71.618800
566.000000	71.565100
565.000000	71.471500
564.000000	71.336800
563.000000	71.223100
562.000000	71.035800
561.000000	70.832500
560.000000	70.618900
559.000000	70.318400
558.000000	70.075800
557.000000	69.867200
556.000000	69.573400
555.000000	69.320700
554.000000	69.060000
553.000000	68.785700
552.000000	68.434600
551.000000	68.094500
550.000000	67.687500
549.000000	67.259400
548.000000	66.747400
547.000000	66.181500
546.000000	65.553300
545.000000	64.852000
544.000000	64.070000
543.000000	63.228600
542.000000	62.298100
541.000000	61.296500
540.000000	60.248300
539.000000	59.199300
538.000000	58.048500
537.000000	56.884500
536.000000	55.753100
535.000000	54.576000
534.000000	53.387400
533.000000	52.220100
532.000000	51.037700
531.000000	49.871100
530.000000	48.782500
529.000000	47.712400
528.000000	46.669300
527.000000	45.690800
526.000000	44.731000
525.000000	43.803900
524.000000	42.911600
523.000000	42.043500
522.000000	41.202200
521.000000	40.391800
520.000000	39.597700
519.000000	38.845900
518.000000	38.110700
517.000000	37.436700
516.000000	36.784800
515.000000	36.123900
514.000000	35.482400
513.000000	34.826500
512.000000	34.199200
511.000000	33.583600
510.000000	33.008800
509.000000	32.439100
508.000000	31.876300
507.000000	31.354100
506.000000	30.828000
505.000000	30.312400
504.000000	29.806300
503.000000	29.325400
502.000000	28.869400
501.000000	28.438300
500.000000	28.051500
499.000000	27.683000
498.000000	27.320400
497.000000	26.974700
496.000000	26.657300
495.000000	26.354400
494.000000	26.070700
493.000000	25.824600
492.000000	25.576100
491.000000	25.350800
490.000000	25.098900
489.000000	24.839000
488.000000	24.604300
487.000000	24.374900
486.000000	24.125400
485.000000	23.876400
484.000000	23.631200
483.000000	23.327900
482.000000	23.003400
481.000000	22.654800
480.000000	22.299900
479.000000	21.932700
478.000000	21.552600
477.000000	21.145300
476.000000	20.719200
475.000000	20.308200
474.000000	19.894600
473.000000	19.489100
472.000000	19.102500
471.000000	18.731500
470.000000	18.386300
469.000000	18.057700
468.000000	17.769800
467.000000	17.508700
466.000000	17.269200
465.000000	17.049500
464.000000	16.847700
463.000000	16.686500
462.000000	16.556300
461.000000	16.437900
460.000000	16.349900
459.000000	16.286400
458.000000	16.277300
457.000000	16.283500
456.000000	16.270400
455.000000	16.303800
454.000000	16.351000
453.000000	16.410100
452.000000	16.475000
451.000000	16.529200
450.000000	16.595400
449.000000	16.657100
448.000000	16.721100
447.000000	16.783800
446.000000	16.812100
445.000000	16.846200
444.000000	16.854300
443.000000	16.846500
442.000000	16.847300
441.000000	16.815900
440.000000	16.772000
439.000000	16.701900
438.000000	16.608000
437.000000	16.523600
436.000000	16.441300
435.000000	16.354100
434.000000	16.269300
433.000000	16.158100
432.000000	16.045700
431.000000	15.926500
430.000000	15.798300
429.000000	15.663600
428.000000	15.525600
427.000000	15.394100
426.000000	15.238600
425.000000	15.086800
424.000000	14.944500
423.000000	14.788400
422.000000	14.624200
421.000000	14.453400
420.000000	14.272400
419.000000	14.091500
418.000000	13.906000
417.000000	13.717000
416.000000	13.524200
415.000000	13.328900
414.000000	13.104000
413.000000	12.862400
412.000000	12.629600
411.000000	12.405900
410.000000	12.181600
409.000000	11.911100
408.000000	11.665400
407.000000	11.434900
406.000000	11.194800
405.000000	10.925700
404.000000	10.675100
403.000000	10.406200
402.000000	10.142300
401.000000	9.896700
400.000000	9.655500
399.000000	9.407600
398.000000	9.166700
397.000000	8.935000
396.000000	8.719600
395.000000	8.513400
394.000000	8.315500
393.000000	8.133800
392.000000	7.940700
391.000000	7.767000
390.000000	7.623400
389.000000	7.456700
388.000000	7.335600
387.000000	7.199200
386.000000	7.073500
385.000000	6.976700
384.000000	6.873000
383.000000	6.763100
382.000000	6.684500
381.000000	6.611500
380.000000	6.545500
379.000000	6.478400
378.000000	6.418600
377.000000	6.375400
376.000000	6.351700
375.000000	6.029100
374.000000	5.831300
373.000000	5.870300
372.000000	5.814600
371.000000	5.827400
370.000000	5.841500
369.000000	6.025100
368.000000	6.132800
367.000000	5.988700
366.000000	5.823000
365.000000	5.947700
364.000000	6.076000
363.000000	5.888700
362.000000	5.872400
361.000000	5.946800
360.000000	5.855100
359.000000	5.991500
358.000000	5.898300
357.000000	5.916400
356.000000	5.910500
355.000000	5.871600
354.000000	5.829100
353.000000	5.914700
352.000000	5.961800
351.000000	6.016500
350.000000	5.901400
349.000000	5.832400
348.000000	6.000000
347.000000	5.834500
346.000000	5.826700
345.000000	5.837600
344.000000	5.942300
343.000000	5.850100
342.000000	5.857000
341.000000	5.765800
340.000000	5.955200
339.000000	5.812300
338.000000	5.862800
337.000000	5.972400
336.000000	6.105900
335.000000	5.898700
334.000000	5.765800
333.000000	6.034600
332.000000	5.699200
331.000000	5.649200
330.000000	5.861900
329.000000	5.952600
328.000000	5.924700
327.000000	6.213800
326.000000	6.085100
325.000000	6.144400
324.000000	6.359400
323.000000	6.495500
322.000000	6.112900
321.000000	5.897500
320.000000	6.451300
319.000000	6.661100
318.000000	6.536600
317.000000	6.764800
316.000000	5.855500
315.000000	5.704300
314.000000	5.722100
313.000000	5.760700
312.000000	5.749600
311.000000	5.852800
310.000000	5.811600
309.000000	5.825700
308.000000	5.861000
307.000000	5.865500
306.000000	5.850200
305.000000	5.846200
304.000000	5.865300
303.000000	5.791000
302.000000	5.811600
301.000000	5.822000
300.000000	5.819900
299.000000	5.832900
298.000000	5.816100
297.000000	5.853100
296.000000	5.790300
295.000000	5.882900
294.000000	5.844800
293.000000	5.896700
292.000000	5.893400
291.000000	5.917900
290.000000	5.897100
289.000000	5.898100
288.000000	5.920000
287.000000	5.909700
286.000000	5.897900
285.000000	5.905400
284.000000	5.885000
283.000000	5.933900
282.000000	5.908300
281.000000	5.908300
280.000000	5.963300
279.000000	5.965200
278.000000	5.979900
277.000000	6.010200
276.000000	6.011300
275.000000	6.011800
274.000000	6.092600
273.000000	6.040000
272.000000	6.076700
271.000000	6.094400
270.000000	6.155600
269.000000	6.112900
268.000000	6.138600
267.000000	6.219500
266.000000	6.215700
265.000000	6.219400
264.000000	6.231000
263.000000	6.313400
262.000000	6.361100
261.000000	6.392600
260.000000	6.365300
259.000000	6.380400
258.000000	6.448700
257.000000	6.470700
256.000000	6.419500
255.000000	6.492100
254.000000	6.470100
253.000000	6.549700
252.000000	6.579300
251.000000	6.602000
250.000000	6.637500
